timestamps,TP9,AF7,AF8,TP10,Right AUX,Marker
1586464771,-31.738,-35.645,215.82,-40.527,0,0
1586464771,-21.484,-41.504,152.832,-34.668,0,0
1586464771,-23.438,-41.016,128.418,-22.949,0,0
1586464771,-23.438,-34.668,79.102,-17.09,0,0
1586464771,-26.855,-30.273,163.574,-27.344,0,0
1586464771,-31.738,-30.762,78.613,-37.598,0,0
1586464771,-31.25,-27.832,116.211,-24.902,0,0
1586464771,-28.32,-21.484,195.312,-14.648,0,0
1586464771,-18.555,-28.32,-101.562,-15.137,0,0
1586464771,-20.02,-28.809,31.738,-22.461,0,0
1586464771,-19.043,-24.902,189.453,-19.043,0,0
1586464771,-14.16,-28.809,144.043,-5.859,0,0
1586464771,-18.066,-28.809,152.344,-12.207,0,0
1586464771,-15.137,-26.855,-0.488,-23.438,0,0
1586464771,-20.508,-30.273,130.371,-25.879,0,0
1586464771,-30.273,-33.691,190.918,-22.949,0,0
1586464771,-20.508,-32.227,132.812,-15.137,0,0
1586464771,-1.953,-27.344,135.254,-16.602,0,0
1586464771,-3.418,-27.832,3.418,-17.578,0,0
1586464771,-14.648,-31.25,-15.625,-11.23,0,0
1586464771,-16.113,-31.25,134.277,-11.23,0,0
1586464771,-5.859,-32.715,120.605,-22.461,0,0
1586464771,-9.766,-34.668,162.598,-32.715,0,0
1586464771,-20.996,-31.25,98.145,-25.879,0,0
1586464771,-18.555,-29.297,124.512,-21.973,0,0
1586464771,-19.043,-35.645,204.102,-29.785,0,0
1586464771,-21.973,-31.738,191.406,-30.762,0,0
1586464771,-19.531,-28.32,145.508,-19.043,0,0
1586464771,-19.531,-33.203,82.52,-14.16,0,0
1586464771,-7.324,-29.297,84.961,-13.184,0,0
1586464771,-3.906,-22.461,93.262,-20.02,0,0
1586464771,-2.93,-16.602,151.367,-15.625,0,0
1586464771,-5.371,-18.066,242.188,-6.348,0,0
1586464771,-2.441,-23.438,84.473,-19.043,0,0
1586464771,1.465,-23.438,-187.5,-34.18,0,0
1586464771,-12.695,-26.855,116.211,-41.504,0,0
1586464771,-18.066,-26.855,228.516,-31.25,0,0
1586464771,-19.531,-26.367,141.113,-24.902,0,0
1586464771,-10.254,-26.855,174.805,-26.855,0,0
1586464771,-11.719,-28.32,166.992,-29.297,0,0
1586464771,-24.414,-31.25,173.828,-27.832,0,0
1586464771,-27.344,-32.227,54.199,-26.855,0,0
1586464771,-24.414,-29.785,104.98,-36.621,0,0
1586464771,-16.602,-27.832,130.859,-41.016,0,0
1586464771,-24.414,-33.691,-228.027,-41.992,0,0
1586464771,-34.18,-30.762,-79.59,-41.992,0,0
1586464771,-32.227,-26.855,176.27,-42.969,0,0
1586464771,-27.344,-25.391,147.461,-47.852,0,0
1586464771,-20.02,-22.949,119.141,-41.992,0,0
1586464771,-24.414,-23.438,19.043,-43.457,0,0
1586464771,-32.227,-25.879,114.258,-56.152,0,0
1586464771,-30.762,-25.391,167.969,-52.246,0,0
1586464771,-27.344,-23.926,126.465,-53.223,0,0
1586464771,-24.414,-27.832,43.457,-43.457,0,0
1586464771,-21.484,-29.297,-125,-22.461,0,0
1586464771,-21.973,-28.809,-1.465,-34.668,0,0
1586464771,-8.789,-24.902,187.988,-40.039,0,0
1586464771,-10.254,-26.855,156.25,-39.062,0,0
1586464771,-25.391,-29.297,124.512,-39.551,0,0
1586464771,-19.531,-30.762,46.387,-24.414,0,0
1586464771,-19.043,-31.738,153.32,-26.855,0,0
1586464771,-23.926,-33.203,180.664,-32.227,0,0
1586464771,-20.02,-30.762,170.41,-15.625,0,0
1586464771,-17.09,-28.32,169.922,-14.16,0,0
1586464771,-8.789,-30.762,100.098,-22.949,0,0
1586464771,-12.695,-29.297,60.059,-25.391,0,0
1586464771,-20.02,-25.391,48.34,-15.625,0,0
1586464771,-14.648,-22.461,121.582,-9.277,0,0
1586464771,-14.16,-22.461,151.855,-26.855,0,0
1586464771,-16.602,-27.344,-26.367,-31.25,0,0
1586464771,-20.02,-30.273,-136.23,-26.855,0,0
1586464771,-27.344,-24.414,121.582,-30.273,0,0
1586464771,-25.391,-25.391,189.453,-34.668,0,0
1586464771,-26.855,-27.344,145.508,-40.039,0,0
1586464771,-36.133,-27.344,138.184,-36.133,0,0
1586464771,-38.574,-26.855,166.992,-32.715,0,0
1586464771,-28.809,-25.391,188.477,-35.645,0,0
1586464771,-27.832,-30.762,82.52,-37.109,0,0
1586464771,-35.645,-34.18,112.305,-39.062,0,0
1586464771,-31.738,-28.32,123.535,-25.879,0,0
1586464771,-29.297,-27.832,-182.617,-21.484,0,0
1586464771,-30.762,-26.367,71.289,-44.434,0,0
1586464771,-24.414,-29.297,242.676,-39.062,0,0
1586464771,-28.809,-33.691,170.898,-29.785,0,0
1586464771,-42.48,-34.668,169.922,-38.574,0,0
1586464771,-31.738,-35.645,134.766,-41.016,0,0
1586464771,-24.414,-29.785,148.438,-41.992,0,0
1586464771,-28.809,-26.367,134.766,-30.273,0,0
1586464771,-22.461,-23.438,175.781,-12.207,0,0
1586464771,-31.25,-34.668,42.969,-29.297,0,0
1586464771,-40.039,-41.992,-223.145,-41.504,0,0
1586464771,-47.363,-33.203,57.617,-37.109,0,0
1586464771,-51.27,-37.598,178.223,-30.273,0,0
1586464771,-40.039,-38.574,110.84,-26.855,0,0
1586464771,-30.273,-32.227,177.246,-34.668,0,0
1586464771,-36.133,-37.598,-46.875,-33.691,0,0
1586464771,-40.527,-38.574,72.266,-25.879,0,0
1586464771,-42.969,-37.598,186.523,-26.855,0,0
1586464771,-40.039,-36.621,147.949,-37.109,0,0
1586464771,-41.016,-35.156,165.527,-41.016,0,0
1586464771,-54.199,-38.574,25.391,-32.227,0,0
1586464771,-57.129,-45.41,27.832,-27.344,0,0
1586464771,-43.945,-45.898,76.66,-33.691,0,0
1586464771,-39.062,-38.574,75.684,-41.016,0,0
1586464771,-43.457,-33.203,75.684,-29.785,0,0
1586464771,-42.969,-37.598,-9.766,-20.996,0,0
1586464771,-44.922,-42.48,-32.227,-35.156,0,0
1586464771,-41.016,-34.668,169.922,-42.48,0,0
1586464771,-46.875,-35.645,184.082,-33.203,0,0
1586464771,-58.105,-41.016,151.855,-28.32,0,0
1586464771,-49.805,-41.016,67.383,-25.879,0,0
1586464771,-42.969,-36.133,136.23,-31.738,0,0
1586464771,-47.363,-33.691,207.52,-33.203,0,0
1586464771,-48.828,-32.227,39.062,-17.578,0,0
1586464771,-44.434,-30.273,52.246,-23.438,0,0
1586464771,-30.273,-32.715,108.887,-35.156,0,0
1586464771,-30.273,-31.738,36.621,-30.273,0,0
1586464771,-45.898,-31.25,59.082,-24.414,0,0
1586464771,-45.41,-31.738,95.703,-22.461,0,0
1586464771,-35.156,-34.18,90.332,-27.832,0,0
1586464771,-41.016,-37.109,-1.953,-30.273,0,0
1586464771,-55.176,-35.156,-189.453,-22.949,0,0
1586464771,-50.293,-33.203,66.895,-24.414,0,0
1586464771,-38.574,-32.227,192.871,-25.879,0,0
1586464771,-36.133,-31.25,146.973,-34.18,0,0
1586464771,-40.527,-30.762,35.645,-35.156,0,0
1586464771,-51.27,-33.691,-237.305,-33.691,0,0
1586464771,-50.781,-30.273,43.457,-35.645,0,0
1586464771,-38.574,-31.25,183.105,-37.109,0,0
1586464771,-31.738,-33.203,139.648,-38.574,0,0
1586464771,-33.203,-30.762,152.344,-29.297,0,0
1586464771,-25.879,-28.809,78.613,-25.879,0,0
1586464771,-21.484,-28.809,206.543,-32.715,0,0
1586464771,-26.855,-32.227,180.176,-34.668,0,0
1586464771,-31.738,-32.715,130.371,-21.973,0,0
1586464771,-37.598,-29.785,174.805,-19.531,0,0
1586464771,-35.645,-28.32,88.379,-27.832,0,0
1586464771,-28.32,-26.367,16.602,-26.367,0,0
1586464771,-33.203,-26.367,61.035,-18.066,0,0
1586464771,-39.551,-30.273,160.645,-10.254,0,0
1586464771,-37.109,-33.691,131.348,-14.648,0,0
1586464771,-26.855,-33.203,-107.91,-20.996,0,0
1586464771,-29.297,-28.809,-34.668,-22.949,0,0
1586464771,-46.875,-28.809,182.129,-15.625,0,0
1586464771,-46.875,-28.809,147.949,-20.508,0,0
1586464771,-36.621,-27.344,144.531,-41.016,0,0
1586464771,-35.645,-31.738,67.871,-33.203,0,0
1586464771,-39.062,-30.762,113.77,-12.695,0,0
1586464771,-41.016,-31.25,157.227,-6.348,0,0
1586464771,-31.25,-34.668,75.195,-7.812,0,0
1586464771,-31.738,-34.668,106.445,-15.625,0,0
1586464771,-42.48,-35.156,23.438,-12.207,0,0
1586464771,-46.875,-31.738,-79.59,-11.23,0,0
1586464771,-39.062,-28.32,127.93,-24.414,0,0
1586464771,-28.809,-23.438,186.523,-30.273,0,0
1586464771,-36.621,-24.902,187.988,-26.855,0,0
1586464771,-44.434,-28.32,129.883,-20.02,0,0
1586464771,-46.387,-25.879,167.969,-20.996,0,0
1586464771,-41.016,-24.414,197.266,-20.996,0,0
1586464771,-43.457,-26.855,126.465,-18.066,0,0
1586464771,-52.734,-26.855,172.363,-19.043,0,0
1586464771,-45.41,-28.809,22.461,-17.09,0,0
1586464771,-24.902,-25.879,-244.141,-12.695,0,0
1586464771,-24.414,-21.484,64.941,-24.902,0,0
1586464771,-35.156,-26.367,173.828,-13.184,0,0
1586464771,-29.785,-25.391,62.012,-2.441,0,0
1586464771,-23.438,-22.461,21.484,-20.02,0,0
1586464771,-27.344,-20.996,27.832,-28.32,0,0
1586464771,-29.297,-20.996,137.207,-24.902,0,0
1586464771,-26.855,-23.926,130.859,-20.996,0,0
1586464771,-18.066,-24.414,154.785,-22.949,0,0
1586464771,-11.23,-27.832,115.234,-21.973,0,0
1586464771,-19.043,-31.25,45.898,-22.949,0,0
1586464771,-23.926,-22.949,62.012,-15.137,0,0
1586464771,-14.648,-21.973,44.922,-12.207,0,0
1586464771,-16.113,-28.809,154.297,-26.855,0,0
1586464771,-21.484,-27.832,134.766,-23.438,0,0
1586464771,-23.926,-29.297,-173.34,-14.16,0,0
1586464771,-28.809,-29.785,29.297,-19.531,0,0
1586464771,-27.344,-30.762,166.992,-30.273,0,0
1586464771,-31.25,-34.18,111.328,-32.715,0,0
1586464771,-32.715,-31.25,166.016,-21.484,0,0
1586464771,-27.832,-33.691,37.109,-19.043,0,0
1586464771,-22.949,-31.738,144.531,-27.832,0,0
1586464771,-22.949,-26.855,184.082,-32.715,0,0
1586464771,-28.32,-28.32,89.844,-22.949,0,0
1586464771,-38.574,-29.785,136.719,-19.531,0,0
1586464771,-36.621,-33.203,51.27,-27.344,0,0
1586464771,-31.738,-38.574,-62.988,-37.109,0,0
1586464771,-45.41,-39.551,66.895,-45.41,0,0
1586464771,-52.734,-35.645,185.547,-36.133,0,0
1586464771,-43.945,-32.715,169.922,-36.621,0,0
1586464771,-33.691,-30.762,78.125,-37.598,0,0
1586464771,-40.039,-28.32,143.066,-42.48,0,0
1586464771,-47.363,-28.32,155.762,-40.527,0,0
1586464771,-51.27,-28.809,68.848,-33.203,0,0
1586464771,-54.199,-29.785,165.039,-39.551,0,0
1586464771,-48.34,-31.738,-6.836,-36.621,0,0
1586464771,-47.363,-26.855,-48.34,-20.02,0,0
1586464771,-45.41,-22.949,187.988,-20.508,0,0
1586464771,-40.527,-23.926,194.336,-33.203,0,0
1586464771,-47.363,-24.414,183.105,-42.969,0,0
1586464771,-50.781,-23.438,152.344,-36.133,0,0
1586464771,-48.34,-22.949,153.809,-33.203,0,0
1586464771,-45.41,-26.367,169.434,-40.527,0,0
1586464771,-35.156,-23.438,184.57,-38.574,0,0
1586464771,-35.156,-23.438,177.734,-38.574,0,0
1586464771,-41.504,-26.367,148.926,-33.691,0,0
1586464771,-38.574,-22.949,130.371,-36.133,0,0
1586464771,-38.086,-25.879,62.988,-47.852,0,0
1586464771,-42.969,-27.832,12.695,-42.969,0,0
1586464771,-44.434,-24.414,121.094,-32.227,0,0
1586464771,-39.551,-22.949,145.996,-30.273,0,0
1586464771,-28.32,-24.902,-218.262,-30.762,0,0
1586464771,-28.32,-24.414,-16.602,-34.668,0,0
1586464771,-32.227,-19.531,212.891,-33.691,0,0
1586464771,-36.133,-28.32,165.527,-28.809,0,0
1586464771,-29.785,-39.551,185.547,-33.203,0,0
1586464771,-19.531,-36.133,54.688,-34.668,0,0
1586464772,-22.461,-32.715,131.836,-34.668,0,0
1586464772,-25.879,-34.668,184.082,-27.344,0,0
1586464772,-14.648,-33.203,67.871,-22.461,0,0
1586464772,-4.883,-35.156,85.449,-33.203,0,0
1586464772,-8.301,-34.18,-58.105,-22.949,0,0
1586464772,-20.508,-27.832,9.277,-12.207,0,0
1586464772,-18.066,-28.32,139.648,-12.695,0,0
1586464772,-2.93,-26.855,168.457,-16.602,0,0
1586464772,-4.395,-28.809,187.012,-23.926,0,0
1586464772,-9.277,-31.738,52.734,-17.09,0,0
1586464772,-8.301,-25.879,84.473,-14.648,0,0
1586464772,-11.23,-27.344,162.598,-30.762,0,0
1586464772,-23.926,-33.691,185.059,-35.156,0,0
1586464772,-29.785,-30.762,168.945,-26.855,0,0
1586464772,-23.926,-29.785,27.832,-20.508,0,0
1586464772,-19.531,-32.227,31.25,-26.855,0,0
1586464772,-22.949,-29.785,184.082,-41.504,0,0
1586464772,-31.738,-28.32,139.648,-40.527,0,0
1586464772,-33.203,-30.762,104.004,-27.344,0,0
1586464772,-24.414,-34.18,93.262,-23.926,0,0
1586464772,-20.996,-36.133,62.5,-33.203,0,0
1586464772,-23.926,-35.156,85.938,-34.668,0,0
1586464772,-35.645,-38.086,151.855,-30.762,0,0
1586464772,-37.598,-37.109,183.594,-23.438,0,0
1586464772,-21.484,-31.25,113.281,-25.879,0,0
1586464772,-20.996,-32.227,141.602,-34.18,0,0
1586464772,-31.738,-38.574,115.723,-30.273,0,0
1586464772,-34.18,-37.598,19.043,-23.926,0,0
1586464772,-27.344,-32.715,151.367,-24.902,0,0
1586464772,-30.273,-31.738,164.551,-23.438,0,0
1586464772,-51.758,-38.086,-201.66,-26.855,0,0
1586464772,-54.199,-33.203,25.879,-26.855,0,0
1586464772,-48.34,-26.367,198.73,-26.367,0,0
1586464772,-46.875,-28.809,126.953,-36.133,0,0
1586464772,-44.922,-33.691,166.992,-36.133,0,0
1586464772,-46.387,-32.715,83.496,-32.227,0,0
1586464772,-37.109,-29.297,55.176,-25.391,0,0
1586464772,-30.273,-27.344,129.883,-25.879,0,0
1586464772,-36.621,-28.809,113.281,-31.25,0,0
1586464772,-31.738,-29.297,40.039,-22.461,0,0
1586464772,-24.414,-29.785,-186.523,-11.719,0,0
1586464772,-27.832,-31.738,-18.066,-24.414,0,0
1586464772,-30.273,-30.762,118.652,-34.18,0,0
1586464772,-38.086,-29.785,143.066,-30.762,0,0
1586464772,-37.109,-28.809,160.156,-25.879,0,0
1586464772,-25.879,-26.367,42.969,-22.461,0,0
1586464772,-20.996,-22.949,164.551,-26.367,0,0
1586464772,-31.25,-27.832,205.566,-25.879,0,0
1586464772,-43.457,-34.668,208.984,-27.344,0,0
1586464772,-39.062,-35.156,204.59,-28.32,0,0
1586464772,-33.203,-39.062,37.109,-32.227,0,0
1586464772,-44.434,-34.18,48.828,-31.25,0,0
1586464772,-48.34,-25.391,147.949,-19.043,0,0
1586464772,-39.551,-27.832,186.523,-18.555,0,0
1586464772,-36.133,-29.785,183.594,-26.367,0,0
1586464772,-38.574,-26.367,-14.648,-20.02,0,0
1586464772,-43.457,-23.438,2.441,-13.672,0,0
1586464772,-41.992,-25.391,190.918,-21.973,0,0
1586464772,-42.969,-27.832,173.828,-35.156,0,0
1586464772,-43.457,-22.461,183.105,-35.645,0,0
1586464772,-43.457,-22.949,132.812,-28.809,0,0
1586464772,-50.293,-25.391,145.996,-27.832,0,0
1586464772,-39.551,-29.297,97.656,-31.738,0,0
1586464772,-31.25,-30.762,5.859,-32.227,0,0
1586464772,-43.457,-24.414,183.594,-25.879,0,0
1586464772,-47.363,-27.832,90.332,-21.973,0,0
1586464772,-37.109,-36.621,-231.934,-20.02,0,0
1586464772,-32.227,-30.762,-6.836,-32.715,0,0
1586464772,-40.527,-31.25,165.527,-34.668,0,0
1586464772,-42.969,-32.227,137.207,-20.508,0,0
1586464772,-34.18,-26.367,132.812,-14.16,0,0
1586464772,-27.344,-23.438,131.836,-19.043,0,0
1586464772,-31.25,-25.879,162.109,-20.508,0,0
1586464772,-40.527,-26.855,162.598,-21.484,0,0
1586464772,-45.41,-30.762,147.949,-29.297,0,0
1586464772,-39.551,-36.621,83.008,-29.297,0,0
1586464772,-23.926,-35.156,-204.59,-27.344,0,0
1586464772,-29.785,-30.762,51.758,-28.809,0,0
1586464772,-38.086,-33.203,258.301,-29.785,0,0
1586464772,-25.391,-33.691,206.543,-33.691,0,0
1586464772,-25.879,-33.691,132.324,-39.551,0,0
1586464772,-32.715,-32.227,12.207,-31.738,0,0
1586464772,-33.691,-25.879,94.238,-22.461,0,0
1586464772,-32.715,-28.809,159.18,-25.391,0,0
1586464772,-29.297,-33.203,187.5,-36.621,0,0
1586464772,-33.203,-32.227,147.461,-37.109,0,0
1586464772,-35.156,-32.715,-52.734,-18.066,0,0
1586464772,-35.156,-37.109,37.598,-22.949,0,0
1586464772,-31.738,-33.691,195.312,-28.32,0,0
1586464772,-30.273,-31.25,133.789,-17.578,0,0
1586464772,-29.785,-36.621,91.797,-15.625,0,0
1586464772,-30.273,-41.016,-51.27,-19.531,0,0
1586464772,-29.297,-32.715,75.684,-30.273,0,0
1586464772,-23.926,-31.738,191.895,-33.691,0,0
1586464772,-29.785,-35.156,145.996,-19.531,0,0
1586464772,-31.738,-33.203,182.617,-17.09,0,0
1586464772,-31.25,-38.574,-31.25,-25.879,0,0
1586464772,-29.785,-35.156,-76.66,-21.484,0,0
1586464772,-28.809,-27.832,113.281,-17.09,0,0
1586464772,-33.203,-27.832,101.562,-19.043,0,0
1586464772,-27.832,-25.879,184.57,-17.09,0,0
1586464772,-16.113,-24.414,33.691,-18.066,0,0
1586464772,-20.996,-25.879,-96.68,-16.602,0,0
1586464772,-33.691,-27.832,121.582,-20.02,0,0
1586464772,-29.785,-26.855,191.406,-16.113,0,0
1586464772,-20.508,-23.438,177.734,-16.113,0,0
1586464772,-11.719,-22.949,112.305,-22.461,0,0
1586464772,-17.578,-23.926,177.246,-13.184,0,0
1586464772,-25.879,-22.949,215.332,-10.254,0,0
1586464772,-19.531,-28.32,155.273,-22.461,0,0
1586464772,-16.113,-37.109,108.398,-23.438,0,0
1586464772,-17.09,-38.086,-10.742,-18.555,0,0
1586464772,-17.09,-33.691,-194.824,-16.113,0,0
1586464772,-19.043,-32.227,44.434,-24.414,0,0
1586464772,-11.23,-31.25,109.375,-31.25,0,0
1586464772,-11.719,-26.367,107.422,-27.832,0,0
1586464772,-19.043,-27.832,45.898,-20.02,0,0
1586464772,-11.719,-24.902,16.113,-19.043,0,0
1586464772,-11.719,-25.391,170.898,-29.785,0,0
1586464772,-18.555,-31.25,168.945,-30.273,0,0
1586464772,-23.926,-34.668,182.617,-16.602,0,0
1586464772,-24.414,-36.621,136.719,-15.137,0,0
1586464772,-17.578,-40.527,5.859,-20.996,0,0
1586464772,-10.742,-40.527,104.004,-21.973,0,0
1586464772,-21.973,-38.086,156.25,-26.855,0,0
1586464772,-29.297,-38.574,174.316,-24.414,0,0
1586464772,-22.461,-32.715,145.996,-24.902,0,0
1586464772,-27.832,-35.645,-144.531,-31.738,0,0
1586464772,-32.715,-36.133,60.547,-26.367,0,0
1586464772,-33.691,-29.297,201.172,-18.066,0,0
1586464772,-36.621,-28.809,109.375,-29.297,0,0
1586464772,-37.598,-29.297,119.629,-38.086,0,0
1586464772,-43.945,-31.738,-91.797,-28.32,0,0
1586464772,-51.758,-30.273,26.367,-20.508,0,0
1586464772,-47.363,-26.855,88.867,-18.555,0,0
1586464772,-35.645,-23.438,67.871,-24.414,0,0
1586464772,-32.715,-23.438,199.219,-26.855,0,0
1586464772,-43.945,-29.785,-44.922,-16.602,0,0
1586464772,-45.898,-32.227,-100.098,-11.719,0,0
1586464772,-38.086,-29.785,151.367,-12.207,0,0
1586464772,-40.039,-29.297,168.945,-20.508,0,0
1586464772,-42.48,-29.785,123.047,-19.531,0,0
1586464772,-32.227,-23.926,51.27,-9.277,0,0
1586464772,-24.902,-20.996,124.512,-17.578,0,0
1586464772,-32.227,-22.949,154.785,-36.133,0,0
1586464772,-42.969,-22.949,95.703,-33.203,0,0
1586464772,-45.898,-25.879,83.984,-19.531,0,0
1586464772,-39.062,-32.227,-42.48,-23.926,0,0
1586464772,-34.18,-30.762,-161.133,-25.391,0,0
1586464772,-35.645,-28.32,99.609,-22.461,0,0
1586464772,-39.062,-27.344,189.941,-20.996,0,0
1586464772,-36.621,-25.879,147.949,-20.508,0,0
1586464772,-26.367,-27.344,142.578,-18.555,0,0
1586464772,-28.32,-25.879,158.691,-20.996,0,0
1586464772,-29.297,-24.902,140.625,-18.555,0,0
1586464772,-26.367,-25.879,154.785,-14.16,0,0
1586464772,-26.855,-25.391,159.668,-28.32,0,0
1586464772,-24.902,-25.391,36.133,-36.133,0,0
1586464772,-29.785,-23.438,-0.977,-25.879,0,0
1586464772,-32.715,-23.438,102.539,-23.438,0,0
1586464772,-38.086,-30.273,150.391,-30.762,0,0
1586464772,-43.945,-32.715,121.094,-40.039,0,0
1586464772,-49.316,-34.18,41.992,-37.598,0,0
1586464772,-46.387,-37.109,-192.383,-22.949,0,0
1586464772,-38.574,-29.297,57.617,-29.785,0,0
1586464772,-31.25,-26.367,204.59,-44.434,0,0
1586464772,-35.156,-32.227,140.137,-41.992,0,0
1586464772,-43.945,-34.668,138.672,-33.203,0,0
1586464772,-34.18,-32.715,54.688,-27.832,0,0
1586464772,-28.809,-31.738,143.066,-40.527,0,0
1586464772,-23.438,-28.32,79.59,-41.504,0,0
1586464772,-24.414,-30.273,43.945,-33.691,0,0
1586464772,-31.738,-36.621,129.883,-32.227,0,0
1586464772,-26.367,-36.621,-86.426,-35.645,0,0
1586464772,-21.484,-32.715,-17.578,-42.48,0,0
1586464772,-29.785,-32.715,249.023,-34.18,0,0
1586464772,-29.297,-34.18,226.074,-30.762,0,0
1586464772,-20.02,-30.762,202.637,-34.18,0,0
1586464772,-15.625,-25.879,136.23,-28.32,0,0
1586464772,-23.926,-31.25,180.664,-28.809,0,0
1586464772,-31.738,-37.598,241.211,-29.785,0,0
1586464772,-26.367,-32.227,210.938,-32.227,0,0
1586464772,-13.672,-27.344,189.941,-30.762,0,0
1586464772,-12.695,-22.461,2.441,-17.578,0,0
1586464772,-21.973,-20.996,-43.457,-6.836,0,0
1586464772,-23.926,-26.367,146.484,-6.348,0,0
1586464772,-14.648,-25.879,123.047,-10.254,0,0
1586464772,-16.113,-29.297,102.539,-16.113,0,0
1586464772,-20.02,-27.832,83.984,-11.719,0,0
1586464772,-20.996,-26.367,131.348,-0.977,0,0
1586464772,-14.648,-30.762,177.734,-11.23,0,0
1586464772,-9.277,-29.297,164.551,-18.555,0,0
1586464772,-15.625,-29.785,161.133,-5.371,0,0
1586464772,-19.531,-31.738,110.84,-5.371,0,0
1586464772,-15.625,-29.785,49.805,-12.207,0,0
1586464772,-11.719,-26.855,99.121,-24.414,0,0
1586464772,-22.461,-29.297,139.16,-27.832,0,0
1586464772,-31.25,-32.715,209.961,-22.461,0,0
1586464772,-25.391,-32.715,137.207,-22.461,0,0
1586464772,-23.438,-30.762,-190.918,-24.414,0,0
1586464772,-31.738,-32.227,120.605,-28.32,0,0
1586464772,-38.574,-39.551,278.32,-18.066,0,0
1586464772,-38.086,-42.48,140.625,-3.906,0,0
1586464772,-27.344,-34.18,144.531,-12.695,0,0
1586464772,-22.461,-27.344,189.941,-22.949,0,0
1586464772,-33.203,-23.438,220.703,-14.16,0,0
1586464772,-35.156,-26.367,101.074,-7.324,0,0
1586464772,-32.715,-30.762,97.656,-16.602,0,0
1586464772,-32.715,-32.227,166.016,-27.344,0,0
1586464772,-31.25,-33.691,-182.129,-14.16,0,0
1586464772,-42.48,-26.367,-64.941,-2.441,0,0
1586464772,-42.48,-20.02,199.707,-11.23,0,0
1586464772,-35.645,-20.508,166.992,-14.648,0,0
1586464772,-37.109,-19.531,156.25,-10.742,0,0
1586464772,-43.457,-25.391,33.691,-5.859,0,0
1586464772,-42.48,-29.297,129.883,-9.766,0,0
1586464772,-33.203,-27.832,208.496,-11.719,0,0
1586464772,-33.691,-28.809,109.863,-13.672,0,0
1586464772,-44.434,-32.227,32.227,-20.996,0,0
1586464772,-41.016,-33.203,-83.984,-21.484,0,0
1586464772,-30.273,-30.273,41.016,-22.949,0,0
1586464772,-28.32,-27.344,152.832,-35.156,0,0
1586464772,-33.203,-26.367,138.184,-34.18,0,0
1586464772,-35.156,-24.902,149.414,-25.879,0,0
1586464772,-43.945,-30.273,17.578,-34.18,0,0
1586464772,-44.922,-34.18,83.496,-40.039,0,0
1586464772,-42.48,-36.133,152.344,-34.18,0,0
1586464772,-50.293,-33.203,121.582,-31.738,0,0
1586464772,-46.387,-31.25,144.531,-32.227,0,0
1586464772,-37.598,-33.691,41.504,-28.32,0,0
1586464772,-36.133,-30.273,-56.641,-30.273,0,0
1586464772,-44.922,-31.25,17.09,-27.832,0,0
1586464772,-43.457,-34.18,83.008,-22.949,0,0
1586464772,-30.273,-32.715,62.012,-32.227,0,0
1586464772,-31.25,-32.227,-77.148,-39.551,0,0
1586464772,-36.133,-33.691,-253.418,-27.344,0,0
1586464772,-39.062,-34.668,64.941,-28.32,0,0
1586464772,-35.156,-36.133,187.988,-29.785,0,0
1586464772,-33.203,-36.621,131.348,-35.156,0,0
1586464772,-39.062,-38.574,132.324,-33.691,0,0
1586464772,-44.434,-40.039,97.656,-21.484,0,0
1586464772,-43.457,-36.621,125.977,-20.996,0,0
1586464772,-32.227,-30.762,19.531,-26.367,0,0
1586464772,-36.133,-28.809,83.984,-32.715,0,0
1586464772,-42.969,-33.203,115.234,-27.832,0,0
1586464772,-39.062,-37.109,-207.52,-14.648,0,0
1586464772,-35.645,-31.738,46.387,-27.344,0,0
1586464772,-41.016,-29.785,224.121,-32.227,0,0
1586464772,-43.945,-35.156,111.816,-24.902,0,0
1586464772,-35.645,-38.086,130.859,-18.555,0,0
1586464772,-31.738,-36.621,102.051,-18.066,0,0
1586464772,-20.508,-27.832,163.086,-22.949,0,0
1586464772,-22.949,-20.02,160.645,-10.742,0,0
1586464772,-32.227,-21.484,181.641,-7.812,0,0
1586464772,-25.879,-24.414,114.258,-16.113,0,0
1586464772,-25.391,-28.809,-137.695,-15.625,0,0
1586464773,-34.18,-29.785,88.867,-15.137,0,0
1586464773,-34.668,-25.879,198.242,-15.625,0,0
1586464773,-33.203,-26.855,86.426,-20.996,0,0
1586464773,-28.809,-30.273,164.062,-32.227,0,0
1586464773,-25.391,-28.809,69.824,-30.762,0,0
1586464773,-34.18,-25.879,171.387,-24.902,0,0
1586464773,-32.715,-27.832,186.035,-21.973,0,0
1586464773,-18.555,-27.344,89.844,-25.391,0,0
1586464773,-16.602,-30.273,166.016,-33.691,0,0
1586464773,-27.344,-29.785,147.461,-28.809,0,0
1586464773,-35.645,-25.391,110.352,-26.855,0,0
1586464773,-31.25,-24.414,108.398,-30.273,0,0
1586464773,-28.809,-21.484,170.41,-35.645,0,0
1586464773,-34.668,-21.484,240.234,-33.203,0,0
1586464773,-39.062,-26.855,65.43,-24.902,0,0
1586464773,-23.438,-27.832,-36.621,-30.273,0,0
1586464773,-16.113,-21.484,168.457,-36.621,0,0
1586464773,-20.02,-22.461,188.965,-26.855,0,0
1586464773,-19.043,-23.926,145.02,-20.02,0,0
1586464773,-17.578,-22.949,78.125,-25.879,0,0
1586464773,-12.695,-20.508,120.117,-32.227,0,0
1586464773,-12.695,-17.578,177.734,-31.25,0,0
1586464773,-22.949,-19.531,84.961,-24.902,0,0
1586464773,-29.785,-24.902,83.496,-24.902,0,0
1586464773,-18.066,-27.344,37.598,-21.973,0,0
1586464773,-19.531,-30.273,-244.629,-24.902,0,0
1586464773,-35.645,-27.344,8.789,-30.273,0,0
1586464773,-32.715,-29.297,234.863,-22.461,0,0
1586464773,-25.391,-31.738,196.289,-26.855,0,0
1586464773,-33.691,-32.715,172.852,-39.551,0,0
1586464773,-37.109,-32.227,182.129,-33.691,0,0
1586464773,-40.039,-34.18,194.824,-29.785,0,0
1586464773,-32.715,-31.25,141.602,-31.25,0,0
1586464773,-25.879,-25.879,187.988,-39.062,0,0
1586464773,-33.691,-34.668,74.219,-38.574,0,0
1586464773,-31.738,-36.621,-238.77,-27.344,0,0
1586464773,-22.949,-27.344,23.926,-23.438,0,0
1586464773,-22.461,-28.809,183.594,-35.645,0,0
1586464773,-20.508,-29.297,138.672,-32.227,0,0
1586464773,-16.113,-28.32,158.691,-22.949,0,0
1586464773,-16.113,-34.18,66.895,-23.438,0,0
1586464773,-4.883,-33.203,152.344,-22.461,0,0
1586464773,-7.812,-30.762,169.434,-35.156,0,0
1586464773,-20.508,-34.18,156.25,-35.645,0,0
1586464773,-14.648,-29.785,137.695,-21.973,0,0
1586464773,-12.695,-29.785,39.551,-24.414,0,0
1586464773,-14.648,-34.18,72.266,-35.645,0,0
1586464773,-14.648,-33.203,104.492,-30.273,0,0
1586464773,-19.531,-29.785,156.738,-17.09,0,0
1586464773,-23.438,-30.273,168.945,-23.438,0,0
1586464773,-21.973,-39.551,-63.477,-26.367,0,0
1586464773,-34.668,-37.598,-61.035,-28.32,0,0
1586464773,-41.016,-33.203,152.344,-26.855,0,0
1586464773,-30.273,-29.785,169.922,-20.996,0,0
1586464773,-29.297,-31.25,160.645,-32.227,0,0
1586464773,-28.809,-35.645,71.289,-25.879,0,0
1586464773,-30.273,-34.668,137.207,-15.625,0,0
1586464773,-29.297,-33.691,198.242,-20.508,0,0
1586464773,-20.996,-33.691,68.848,-31.25,0,0
1586464773,-26.855,-35.156,115.723,-35.645,0,0
1586464773,-31.738,-36.621,19.531,-29.785,0,0
1586464773,-35.156,-33.691,-137.207,-27.344,0,0
1586464773,-32.715,-28.809,138.672,-31.25,0,0
1586464773,-20.02,-30.762,199.219,-34.18,0,0
1586464773,-22.461,-31.25,184.082,-23.438,0,0
1586464773,-25.391,-29.785,146.484,-16.113,0,0
1586464773,-20.02,-33.203,168.457,-29.297,0,0
1586464773,-15.137,-36.621,169.434,-38.086,0,0
1586464773,-13.672,-34.18,115.234,-26.855,0,0
1586464773,-20.996,-32.715,199.707,-17.09,0,0
1586464773,-20.996,-33.691,51.27,-18.555,0,0
1586464773,-15.625,-33.203,-229.98,-18.555,0,0
1586464773,-19.531,-29.297,89.844,-20.508,0,0
1586464773,-22.949,-28.809,223.145,-20.02,0,0
1586464773,-22.949,-29.297,105.469,-20.02,0,0
1586464773,-7.324,-23.438,186.523,-19.531,0,0
1586464773,-0.488,-20.02,175.781,-18.066,0,0
1586464773,-15.137,-26.367,142.09,-15.137,0,0
1586464773,-17.578,-25.391,163.574,-6.836,0,0
1586464773,-16.602,-22.461,199.219,-15.625,0,0
1586464773,-20.508,-24.902,162.598,-22.949,0,0
1586464773,-27.344,-26.367,51.27,-13.184,0,0
1586464773,-30.273,-25.879,38.086,-13.672,0,0
1586464773,-18.066,-21.484,25.391,-14.648,0,0
1586464773,-16.113,-21.973,96.68,-23.926,0,0
1586464773,-20.996,-22.461,179.199,-27.344,0,0
1586464773,-31.738,-25.879,-92.773,-9.277,0,0
1586464773,-34.18,-31.25,0.488,-5.371,0,0
1586464773,-29.785,-29.785,214.355,-17.578,0,0
1586464773,-34.18,-25.879,164.062,-15.137,0,0
1586464773,-40.039,-25.879,156.25,-4.883,0,0
1586464773,-35.645,-28.809,62.5,2.93,0,0
1586464773,-23.926,-27.344,105.469,-3.906,0,0
1586464773,-18.555,-24.414,185.059,-21.973,0,0
1586464773,-25.879,-30.273,114.258,-23.926,0,0
1586464773,-44.434,-29.297,145.996,-24.902,0,0
1586464773,-43.457,-25.391,37.109,-25.879,0,0
1586464773,-45.41,-32.715,-106.445,-24.414,0,0
1586464773,-54.688,-33.203,51.27,-27.832,0,0
1586464773,-46.875,-26.855,132.812,-15.137,0,0
1586464773,-39.551,-26.855,210.938,-17.09,0,0
1586464773,-41.504,-33.691,119.141,-32.227,0,0
1586464773,-45.41,-34.668,109.375,-30.762,0,0
1586464773,-46.387,-34.18,170.41,-23.926,0,0
1586464773,-54.199,-37.598,174.316,-23.926,0,0
1586464773,-50.781,-34.18,229.004,-25.879,0,0
1586464773,-49.316,-34.668,48.34,-27.344,0,0
1586464773,-63.965,-41.016,-92.285,-25.879,0,0
1586464773,-64.941,-38.574,148.926,-28.809,0,0
1586464773,-43.945,-28.809,185.547,-27.832,0,0
1586464773,-30.273,-24.414,175.781,-25.391,0,0
1586464773,-38.086,-28.32,177.246,-23.926,0,0
1586464773,-41.016,-30.762,140.625,-17.09,0,0
1586464773,-31.738,-29.297,110.352,-19.531,0,0
1586464773,-23.926,-29.785,162.109,-26.855,0,0
1586464773,-28.809,-30.762,180.664,-29.785,0,0
1586464773,-36.621,-27.832,152.344,-31.25,0,0
1586464773,-34.668,-28.809,177.734,-33.691,0,0
1586464773,-30.273,-33.203,131.348,-31.25,0,0
1586464773,-42.48,-31.738,88.867,-30.273,0,0
1586464773,-48.828,-31.738,196.777,-33.203,0,0
1586464773,-43.457,-31.738,117.188,-31.738,0,0
1586464773,-39.551,-30.273,-221.191,-26.855,0,0
1586464773,-36.621,-25.879,22.461,-30.762,0,0
1586464773,-43.457,-29.785,193.848,-35.156,0,0
1586464773,-53.223,-31.738,143.066,-37.598,0,0
1586464773,-37.109,-31.25,172.363,-38.574,0,0
1586464773,-29.785,-32.715,21.973,-35.645,0,0
1586464773,-41.504,-27.832,35.156,-23.438,0,0
1586464773,-43.945,-26.855,142.09,-18.066,0,0
1586464773,-35.645,-26.855,100.098,-27.832,0,0
1586464773,-27.832,-26.367,91.309,-36.133,0,0
1586464773,-32.715,-28.809,-49.805,-28.809,0,0
1586464773,-41.504,-27.344,0.977,-22.949,0,0
1586464773,-38.086,-28.32,213.379,-25.391,0,0
1586464773,-36.621,-30.273,191.895,-24.414,0,0
1586464773,-41.992,-35.645,175.293,-27.832,0,0
1586464773,-49.805,-40.039,93.75,-33.691,0,0
1586464773,-60.059,-39.062,159.18,-35.156,0,0
1586464773,-53.711,-35.156,222.168,-33.203,0,0
1586464773,-51.27,-37.598,155.762,-40.527,0,0
1586464773,-61.035,-39.062,169.922,-34.18,0,0
1586464773,-61.523,-39.551,-7.812,-25.879,0,0
1586464773,-51.758,-35.645,-133.789,-29.297,0,0
1586464773,-47.852,-32.715,106.934,-35.645,0,0
1586464773,-60.547,-32.227,144.531,-34.668,0,0
1586464773,-69.336,-32.227,66.895,-31.25,0,0
1586464773,-60.059,-32.715,71.289,-30.273,0,0
1586464773,-54.688,-31.738,106.445,-37.598,0,0
1586464773,-53.223,-30.273,148.438,-35.156,0,0
1586464773,-61.035,-33.203,161.133,-35.156,0,0
1586464773,-67.871,-36.133,170.898,-42.48,0,0
1586464773,-56.641,-34.18,130.859,-36.621,0,0
1586464773,-45.41,-32.227,127.93,-32.227,0,0
1586464773,-50.293,-32.715,68.848,-30.762,0,0
1586464773,-49.805,-29.785,101.074,-26.367,0,0
1586464773,-40.039,-26.367,234.375,-23.926,0,0
1586464773,-32.227,-27.344,116.211,-30.273,0,0
1586464773,-40.527,-29.785,-81.543,-29.785,0,0
1586464773,-51.27,-29.297,100.586,-32.715,0,0
1586464773,-35.645,-28.32,157.715,-33.203,0,0
1586464773,-22.949,-28.809,177.246,-17.578,0,0
1586464773,-38.574,-30.762,146.484,-20.996,0,0
1586464773,-62.5,-34.668,-211.914,-24.414,0,0
1586464773,-53.711,-32.227,16.602,-20.508,0,0
1586464773,-42.48,-30.762,189.941,-34.18,0,0
1586464773,-55.176,-36.621,58.105,-40.527,0,0
1586464773,-61.035,-41.504,69.336,-27.344,0,0
1586464773,-57.617,-42.969,-165.039,-17.578,0,0
1586464773,-53.223,-44.922,-35.645,-25.391,0,0
1586464773,-48.34,-38.574,161.621,-26.855,0,0
1586464773,-47.363,-36.133,165.039,-23.926,0,0
1586464773,-50.781,-38.574,167.48,-24.902,0,0
1586464773,-43.945,-38.574,26.855,-27.344,0,0
1586464773,-41.992,-36.621,118.652,-34.18,0,0
1586464773,-51.758,-34.18,198.73,-36.133,0,0
1586464773,-53.711,-34.18,195.801,-29.785,0,0
1586464773,-46.875,-30.273,209.473,-32.227,0,0
1586464773,-41.016,-31.25,35.645,-32.227,0,0
1586464773,-46.875,-34.18,67.871,-31.25,0,0
1586464773,-46.875,-36.133,184.57,-33.691,0,0
1586464773,-31.25,-36.621,145.02,-31.25,0,0
1586464773,-16.113,-37.109,164.062,-39.062,0,0
1586464773,-17.578,-36.133,37.598,-30.273,0,0
1586464773,-33.691,-32.715,4.395,-16.602,0,0
1586464773,-33.203,-25.879,177.734,-16.602,0,0
1586464773,-25.391,-27.344,182.617,-20.996,0,0
1586464773,-27.344,-31.738,136.719,-26.367,0,0
1586464773,-30.273,-31.25,60.547,-14.16,0,0
1586464773,-41.016,-30.762,98.145,-9.277,0,0
1586464773,-37.598,-34.18,44.922,-17.09,0,0
1586464773,-22.461,-34.18,45.41,-20.508,0,0
1586464773,-20.996,-28.32,220.215,-19.043,0,0
1586464773,-27.344,-34.668,48.34,-14.16,0,0
1586464773,-16.113,-35.645,-232.422,-12.695,0,0
1586464773,-5.371,-27.344,80.078,-27.344,0,0
1586464773,-10.254,-29.297,226.562,-32.227,0,0
1586464773,-20.508,-28.32,167.48,-23.438,0,0
1586464773,-20.02,-30.273,166.504,-22.461,0,0
1586464773,-8.789,-31.25,141.113,-22.461,0,0
1586464773,-16.113,-26.855,161.621,-26.855,0,0
1586464773,-25.391,-32.227,119.629,-26.367,0,0
1586464773,-29.297,-32.227,105.469,-23.926,0,0
1586464773,-28.809,-28.32,72.266,-33.691,0,0
1586464773,-20.508,-27.832,-216.797,-24.902,0,0
1586464773,-26.855,-28.809,25.879,-19.531,0,0
1586464773,-39.551,-30.273,237.305,-20.996,0,0
1586464773,-34.18,-27.344,185.547,-17.09,0,0
1586464773,-25.879,-32.227,117.188,-24.414,0,0
1586464773,-26.367,-29.785,40.039,-15.137,0,0
1586464773,-37.109,-26.367,160.156,-4.883,0,0
1586464773,-42.969,-28.32,173.34,-17.09,0,0
1586464773,-36.133,-21.484,168.457,-30.762,0,0
1586464773,-34.18,-21.973,118.164,-27.344,0,0
1586464773,-41.504,-27.344,-68.359,-25.879,0,0
1586464773,-43.945,-26.855,46.875,-36.133,0,0
1586464773,-38.574,-22.461,204.59,-49.316,0,0
1586464773,-39.551,-21.484,145.02,-53.711,0,0
1586464773,-54.688,-24.414,81.543,-45.41,0,0
1586464773,-63.965,-26.855,-41.504,-40.527,0,0
1586464773,-58.594,-28.809,81.055,-45.41,0,0
1586464773,-59.082,-31.738,180.664,-49.805,0,0
1586464773,-72.754,-33.691,141.602,-38.574,0,0
1586464773,-79.102,-29.297,125.977,-33.203,0,0
1586464773,-76.66,-24.414,18.066,-47.363,0,0
1586464773,-83.984,-24.414,87.402,-70.801,0,0
1586464773,-95.703,-25.879,65.918,-83.008,0,0
1586464773,-118.652,-23.926,-0.488,-103.516,0,0
1586464773,-130.371,-20.508,141.113,-120.605,0,0
1586464773,-146.973,-18.066,-1.953,-147.461,0,0
1586464773,-182.129,-20.02,-143.066,-180.664,0,0
1586464773,-225.586,-16.113,113.77,-218.75,0,0
1586464773,-256.836,-9.277,179.199,-256.836,0,0
1586464773,-284.18,-8.789,116.699,-300.293,0,0
1586464773,-317.871,-9.766,64.941,-337.402,0,0
1586464773,-349.121,-7.812,114.746,-360.84,0,0
1586464773,-356.445,-4.883,162.598,-360.84,0,0
1586464773,-334.473,-2.441,111.328,-340.82,0,0
1586464773,-317.383,-4.395,39.062,-330.078,0,0
1586464773,-301.758,-3.906,-57.617,-307.617,0,0
1586464773,-275.879,-7.812,-270.508,-275.391,0,0
1586464773,-241.699,-11.23,-66.406,-253.906,0,0
1586464773,-202.637,-6.836,62.5,-234.863,0,0
1586464773,-181.641,-7.324,111.328,-204.59,0,0
1586464773,-165.527,-14.648,157.715,-173.828,0,0
1586464773,-136.23,-20.02,103.516,-145.02,0,0
1586464773,-118.164,-18.066,153.809,-129.883,0,0
1586464773,-100.098,-22.461,125,-112.793,0,0
1586464773,-81.055,-30.273,113.281,-86.914,0,0
1586464773,-63.477,-32.715,61.035,-70.312,0,0
1586464773,-37.109,-27.344,-86.426,-48.828,0,0
1586464773,-10.254,-18.066,71.289,-32.715,0,0
1586464773,-2.441,-22.461,158.203,-18.555,0,0
1586464773,5.371,-31.738,154.785,-2.93,0,0
1586464773,21.484,-31.25,176.758,-0.977,0,0
1586464773,27.832,-36.133,-67.383,6.348,0,0
1586464774,22.949,-37.598,83.984,14.648,0,0
1586464774,30.273,-30.762,213.867,26.855,0,0
1586464774,41.016,-27.832,154.297,32.715,0,0
1586464774,45.898,-31.25,126.465,36.621,0,0
1586464774,44.434,-33.203,66.406,41.992,0,0
1586464774,37.109,-27.832,161.133,46.387,0,0
1586464774,41.504,-29.297,116.211,46.875,0,0
1586464774,48.828,-31.738,90.332,45.898,0,0
1586464774,46.875,-30.273,157.715,47.852,0,0
1586464774,37.598,-37.598,8.301,50.781,0,0
1586464774,34.668,-43.457,-19.043,53.711,0,0
1586464774,35.156,-41.504,203.125,45.898,0,0
1586464774,37.109,-38.574,211.914,50.781,0,0
1586464774,40.527,-38.086,184.57,65.43,0,0
1586464774,40.527,-39.062,91.309,64.453,0,0
1586464774,40.527,-37.109,110.352,56.641,0,0
1586464774,43.945,-36.133,145.508,63.477,0,0
1586464774,38.574,-36.133,92.285,66.895,0,0
1586464774,33.691,-37.598,104.004,63.965,0,0
1586464774,45.41,-40.527,-10.254,64.453,0,0
1586464774,51.27,-40.527,-217.285,68.848,0,0
1586464774,37.598,-36.621,46.875,66.895,0,0
1586464774,25.391,-34.18,174.805,67.871,0,0
1586464774,30.762,-34.18,90.82,66.406,0,0
1586464774,43.457,-33.691,49.316,56.152,0,0
1586464774,40.527,-33.691,73.242,45.41,0,0
1586464774,30.273,-35.156,135.742,43.945,0,0
1586464774,31.738,-33.203,121.582,47.852,0,0
1586464774,36.133,-29.297,119.141,44.922,0,0
1586464774,34.668,-30.273,92.773,44.922,0,0
1586464774,25.391,-38.086,-142.578,52.734,0,0
1586464774,22.461,-32.715,16.602,57.129,0,0
1586464774,24.414,-31.25,144.531,50.781,0,0
1586464774,19.531,-35.645,71.289,41.504,0,0
1586464774,9.766,-38.574,44.922,41.992,0,0
1586464774,7.812,-39.062,-225.098,45.41,0,0
1586464774,15.137,-33.691,9.766,31.738,0,0
1586464774,23.438,-29.785,175.781,21.484,0,0
1586464774,20.508,-30.273,69.824,28.32,0,0
1586464774,11.23,-33.203,46.387,32.715,0,0
1586464774,12.207,-29.297,7.324,42.48,0,0
1586464774,19.531,-26.855,139.16,39.551,0,0
1586464774,16.602,-31.738,75.684,32.715,0,0
1586464774,5.859,-33.203,68.359,33.691,0,0
1586464774,-0.977,-36.133,187.012,28.32,0,0
1586464774,2.441,-41.016,-93.262,20.996,0,0
1586464774,10.742,-34.18,-36.621,16.113,0,0
1586464774,10.254,-27.344,202.148,17.578,0,0
1586464774,5.371,-26.855,150.879,22.949,0,0
1586464774,15.137,-27.344,151.367,23.438,0,0
1586464774,17.09,-33.203,66.895,12.695,0,0
1586464774,2.93,-38.086,113.77,8.789,0,0
1586464774,-4.395,-38.086,172.363,14.16,0,0
1586464774,1.465,-37.598,94.727,10.254,0,0
1586464774,0.977,-37.598,84.961,1.465,0,0
1586464774,0.977,-36.133,-24.902,3.906,0,0
1586464774,-2.93,-36.133,-85.449,8.301,0,0
1586464774,-17.578,-32.227,86.426,5.371,0,0
1586464774,-12.695,-27.832,56.641,-8.301,0,0
1586464774,-11.719,-26.367,120.605,-17.578,0,0
1586464774,-13.672,-25.391,69.824,-1.465,0,0
1586464774,-8.789,-24.902,102.051,5.859,0,0
1586464774,-17.09,-28.32,171.875,-13.672,0,0
1586464774,-14.16,-28.32,134.277,-17.09,0,0
1586464774,-9.277,-21.484,152.832,0.977,0,0
1586464774,-21.973,-22.461,75.195,0.977,0,0
1586464774,-29.297,-30.762,-42.48,-10.254,0,0
1586464774,-25.391,-27.832,47.363,-15.625,0,0
1586464774,-18.066,-26.367,51.27,-11.719,0,0
1586464774,-26.855,-25.391,76.66,-10.254,0,0
1586464774,-32.715,-29.785,81.055,-20.508,0,0
1586464774,-18.555,-33.203,-218.262,-22.949,0,0
1586464774,-19.043,-30.273,13.672,-24.414,0,0
1586464774,-24.414,-28.32,177.734,-23.438,0,0
1586464774,-22.949,-26.855,106.445,-18.066,0,0
1586464774,-22.461,-25.391,92.773,-20.996,0,0
1586464774,-15.625,-22.949,29.785,-24.902,0,0
1586464774,-17.578,-21.973,104.004,-19.043,0,0
1586464774,-24.414,-25.391,11.23,-16.602,0,0
1586464774,-18.555,-25.391,6.836,-22.949,0,0
1586464774,-17.578,-24.902,108.398,-25.879,0,0
1586464774,-26.855,-31.25,-282.715,-19.043,0,0
1586464774,-28.32,-32.227,-189.453,-8.789,0,0
1586464774,-15.625,-26.367,95.703,-16.113,0,0
1586464774,-1.953,-24.902,40.527,-20.508,0,0
1586464774,-1.465,-24.902,73.242,-20.508,0,0
1586464774,-12.207,-30.273,-19.531,-18.555,0,0
1586464774,-22.949,-38.574,94.727,-24.414,0,0
1586464774,-10.254,-35.156,153.809,-36.133,0,0
1586464774,0.488,-28.809,125.977,-39.551,0,0
1586464774,-4.883,-32.715,106.934,-25.879,0,0
1586464774,-0.977,-34.668,-150.391,-14.16,0,0
1586464774,10.254,-30.762,-136.23,-21.973,0,0
1586464774,15.137,-27.344,101.562,-30.273,0,0
1586464774,0.977,-27.832,148.438,-26.855,0,0
1586464774,-6.348,-26.855,164.062,-19.531,0,0
1586464774,4.395,-31.25,77.148,-23.438,0,0
1586464774,9.277,-31.25,104.98,-35.645,0,0
1586464774,-5.371,-31.25,110.352,-30.762,0,0
1586464774,-3.418,-29.785,52.246,-14.648,0,0
1586464774,13.184,-26.855,113.77,-10.254,0,0
1586464774,27.344,-25.879,18.555,-16.113,0,0
1586464774,20.02,-26.367,-93.262,-23.926,0,0
1586464774,3.906,-23.926,49.805,-11.719,0,0
1586464774,7.324,-27.832,106.934,-6.348,0,0
1586464774,12.695,-33.203,148.438,-16.113,0,0
1586464774,13.184,-31.25,-6.348,-8.789,0,0
1586464774,5.371,-33.691,-240.234,8.301,0,0
1586464774,3.418,-31.738,31.738,2.93,0,0
1586464774,6.348,-32.227,170.41,-11.719,0,0
1586464774,3.906,-34.668,134.277,-15.137,0,0
1586464774,0,-34.668,79.102,-10.742,0,0
1586464774,-0.977,-34.18,29.785,-5.371,0,0
1586464774,12.207,-31.25,64.453,-7.324,0,0
1586464774,18.066,-32.227,-4.883,-7.324,0,0
1586464774,10.742,-34.668,9.766,-10.742,0,0
1586464774,0.488,-40.527,4.883,-5.859,0,0
1586464774,7.324,-41.992,-237.793,2.441,0,0
1586464774,8.789,-36.133,6.348,-16.602,0,0
1586464774,-2.441,-32.227,165.527,-26.367,0,0
1586464774,-8.301,-33.203,104.492,-12.695,0,0
1586464774,-5.859,-33.691,100.098,0.488,0,0
1586464774,-0.977,-30.762,-6.836,-10.742,0,0
1586464774,0.488,-31.25,109.375,-23.438,0,0
1586464774,-7.324,-34.668,152.832,-19.531,0,0
1586464774,-15.137,-33.203,139.648,-15.625,0,0
1586464774,-3.906,-29.785,77.148,-13.672,0,0
1586464774,-1.465,-28.809,-149.414,-17.09,0,0
1586464774,-15.137,-31.738,3.906,-12.207,0,0
1586464774,-16.113,-35.645,143.555,-8.301,0,0
1586464774,-12.695,-37.598,80.566,-21.484,0,0
1586464774,-6.836,-36.133,115.234,-30.762,0,0
1586464774,-9.277,-30.273,92.773,-23.926,0,0
1586464774,-30.762,-33.691,166.992,-20.02,0,0
1586464774,-28.809,-38.574,199.707,-16.602,0,0
1586464774,-22.949,-33.203,180.664,-20.02,0,0
1586464774,-32.715,-32.715,163.574,-20.508,0,0
1586464774,-33.691,-38.086,107.422,-9.277,0,0
1586464774,-28.809,-37.109,64.453,-14.648,0,0
1586464774,-20.996,-37.598,85.938,-23.438,0,0
1586464774,-22.949,-33.691,168.945,-21.973,0,0
1586464774,-38.086,-31.25,170.898,-14.16,0,0
1586464774,-42.969,-37.598,-20.508,-8.301,0,0
1586464774,-26.367,-33.203,-49.805,-14.16,0,0
1586464774,-23.926,-32.715,110.84,-20.508,0,0
1586464774,-29.297,-34.18,123.047,-21.973,0,0
1586464774,-22.949,-28.32,173.828,-20.996,0,0
1586464774,-12.695,-29.297,28.32,-23.438,0,0
1586464774,-7.324,-30.273,-68.359,-24.902,0,0
1586464774,-17.09,-27.832,135.254,-29.297,0,0
1586464774,-28.809,-29.297,92.285,-33.203,0,0
1586464774,-31.738,-27.832,104.98,-27.832,0,0
1586464774,-28.32,-26.855,110.352,-29.785,0,0
1586464774,-21.484,-25.391,-232.422,-23.438,0,0
1586464774,-29.297,-21.484,-0.488,-23.438,0,0
1586464774,-30.762,-20.508,241.699,-36.133,0,0
1586464774,-15.625,-22.949,134.766,-48.828,0,0
1586464774,-16.602,-28.32,136.719,-50.293,0,0
1586464774,-31.738,-30.273,123.047,-41.504,0,0
1586464774,-37.109,-26.367,107.422,-40.527,0,0
1586464774,-37.109,-25.391,96.68,-41.504,0,0
1586464774,-31.738,-24.902,127.93,-38.574,0,0
1586464774,-24.414,-22.949,34.668,-36.621,0,0
1586464774,-27.832,-22.949,-205.078,-36.133,0,0
1586464774,-28.32,-17.578,38.574,-33.691,0,0
1586464774,-27.832,-17.09,175.781,-35.645,0,0
1586464774,-33.203,-23.926,121.094,-40.039,0,0
1586464774,-36.133,-22.949,130.859,-35.645,0,0
1586464774,-27.344,-23.926,-121.582,-33.203,0,0
1586464774,-24.902,-25.391,43.945,-42.48,0,0
1586464774,-31.25,-25.391,185.547,-40.527,0,0
1586464774,-32.715,-22.949,151.367,-31.25,0,0
1586464774,-27.832,-19.043,191.406,-33.203,0,0
1586464774,-26.367,-24.414,-17.578,-36.621,0,0
1586464774,-32.715,-28.32,-40.039,-49.805,0,0
1586464774,-29.297,-26.367,69.336,-45.898,0,0
1586464774,-27.344,-23.926,127.93,-31.738,0,0
1586464774,-29.785,-24.414,210.449,-32.227,0,0
1586464774,-29.785,-27.832,-73.73,-34.18,0,0
1586464774,-38.574,-30.273,-54.199,-31.738,0,0
1586464774,-38.086,-23.438,232.422,-30.273,0,0
1586464774,-27.832,-22.461,186.523,-32.227,0,0
1586464774,-19.043,-20.508,189.941,-37.109,0,0
1586464774,-19.531,-20.508,146.484,-36.133,0,0
1586464774,-28.32,-24.902,159.18,-33.203,0,0
1586464774,-25.391,-23.926,211.426,-29.785,0,0
1586464774,-12.207,-23.926,108.398,-30.762,0,0
1586464774,-11.719,-26.855,132.324,-37.109,0,0
1586464774,-17.578,-26.855,83.984,-30.762,0,0
1586464774,-20.996,-25.391,-115.723,-17.578,0,0
1586464774,-16.113,-22.949,69.336,-23.438,0,0
1586464774,-13.672,-21.973,208.984,-32.715,0,0
1586464774,-18.555,-20.508,206.055,-27.832,0,0
1586464774,-20.02,-20.02,155.762,-21.973,0,0
1586464774,-15.625,-21.973,159.668,-28.809,0,0
1586464774,-11.719,-20.996,214.844,-28.809,0,0
1586464774,-19.043,-21.484,205.078,-24.414,0,0
1586464774,-20.996,-20.02,211.426,-20.02,0,0
1586464774,-17.578,-21.973,101.562,-18.555,0,0
1586464774,-16.602,-27.832,-203.125,-23.926,0,0
1586464774,-23.926,-23.438,63.477,-35.156,0,0
1586464774,-25.879,-20.996,199.707,-36.621,0,0
1586464774,-19.531,-23.438,99.609,-26.367,0,0
1586464774,-19.531,-21.484,168.457,-29.297,0,0
1586464774,-24.414,-20.02,79.59,-35.645,0,0
1586464774,-26.855,-20.02,63.477,-32.227,0,0
1586464774,-21.484,-20.996,152.344,-29.785,0,0
1586464774,-13.184,-22.461,210.938,-30.762,0,0
1586464774,-9.277,-25.879,135.742,-29.297,0,0
1586464774,-15.137,-28.32,7.324,-26.367,0,0
1586464774,-19.531,-25.391,47.363,-28.32,0,0
1586464774,-17.578,-26.367,74.707,-30.273,0,0
1586464774,-21.973,-24.902,126.465,-38.086,0,0
1586464774,-18.066,-26.367,151.855,-32.715,0,0
1586464774,-27.344,-30.762,-119.141,-32.227,0,0
1586464774,-27.344,-27.832,-59.082,-43.457,0,0
1586464774,3.418,-20.996,172.852,-30.762,0,0
1586464774,2.93,-25.879,139.16,-26.855,0,0
1586464774,-20.508,-31.25,141.602,-31.738,0,0
1586464774,-19.043,-32.227,-36.133,-30.762,0,0
1586464774,-15.137,-36.133,-113.281,-37.598,0,0
1586464774,-19.043,-35.645,28.809,-43.457,0,0
1586464774,-24.414,-32.227,-76.66,-38.574,0,0
1586464774,-20.996,-24.414,-164.551,-40.039,0,0
1586464774,-10.254,-30.273,-155.762,-41.992,0,0
1586464774,-9.277,-34.668,-240.723,-36.133,0,0
1586464774,-23.438,-30.273,-43.457,-36.133,0,0
1586464774,-32.227,-32.715,139.16,-39.062,0,0
1586464774,-24.414,-35.156,139.16,-36.621,0,0
1586464774,-11.719,-34.668,57.129,-39.062,0,0
1586464774,-15.625,-31.738,90.82,-44.434,0,0
1586464774,-15.137,-28.809,144.043,-39.551,0,0
1586464774,-11.719,-30.762,127.93,-38.574,0,0
1586464774,-4.395,-35.645,159.18,-37.598,0,0
1586464774,-0.977,-39.062,-36.133,-37.109,0,0
1586464774,-14.16,-36.621,-139.16,-38.574,0,0
1586464774,-26.855,-32.227,98.145,-41.504,0,0
1586464774,-15.625,-33.203,150.391,-39.062,0,0
1586464774,-15.137,-37.109,147.949,-43.945,0,0
1586464774,-23.438,-40.039,55.176,-45.898,0,0
1586464774,-23.926,-39.062,32.227,-36.621,0,0
1586464774,-21.484,-34.668,187.012,-35.156,0,0
1586464774,-13.184,-34.18,173.828,-40.527,0,0
1586464774,-15.625,-37.598,172.363,-33.203,0,0
1586464774,-34.18,-41.992,171.875,-27.832,0,0
1586464774,-28.809,-39.062,91.797,-25.879,0,0
1586464774,-10.742,-36.621,35.645,-27.344,0,0
1586464774,-17.09,-31.25,43.945,-30.762,0,0
1586464774,-29.297,-26.367,171.387,-31.738,0,0
1586464774,-30.273,-29.785,134.766,-40.527,0,0
1586464774,-17.09,-29.785,-221.191,-36.133,0,0
1586464774,-13.672,-24.414,-31.738,-34.668,0,0
1586464774,-26.367,-20.996,196.777,-40.527,0,0
1586464774,-26.367,-19.531,193.848,-36.621,0,0
1586464774,-17.578,-16.113,167.48,-47.363,0,0
1586464774,-18.066,-20.996,14.648,-65.918,0,0
1586464775,-27.832,-29.297,140.137,-69.824,0,0
1586464775,-34.668,-28.32,176.27,-64.453,0,0
1586464775,-38.574,-28.809,53.223,-61.035,0,0
1586464775,-33.691,-28.32,81.055,-66.406,0,0
1586464775,-23.926,-31.738,-28.32,-62.5,0,0
1586464775,-31.738,-32.227,-27.832,-59.082,0,0
1586464775,-37.598,-29.785,194.336,-62.988,0,0
1586464775,-20.02,-28.32,206.055,-62.5,0,0
1586464775,-9.766,-23.926,156.738,-54.199,0,0
1586464775,-11.23,-24.902,58.594,-41.992,0,0
1586464775,-13.672,-27.832,143.066,-29.785,0,0
1586464775,-8.789,-24.414,166.016,-24.902,0,0
1586464775,-2.93,-22.461,188.477,-19.531,0,0
1586464775,-7.324,-25.391,214.844,-14.16,0,0
1586464775,-3.906,-27.832,95.215,-11.23,0,0
1586464775,-1.465,-26.855,92.773,-18.066,0,0
1586464775,2.93,-18.066,213.379,-16.113,0,0
1586464775,2.93,-18.555,170.41,-9.766,0,0
1586464775,-10.742,-20.996,155.762,-4.395,0,0
1586464775,-10.742,-20.508,126.953,0,0,0
1586464775,-11.719,-26.855,45.41,-4.395,0,0
1586464775,-27.344,-30.762,208.496,-1.465,0,0
1586464775,-37.109,-32.227,251.465,0.977,0,0
1586464775,-29.297,-29.297,228.027,-4.883,0,0
1586464775,-23.438,-27.832,169.922,-16.113,0,0
1586464775,-34.668,-30.273,197.266,-11.23,0,0
1586464775,-41.504,-35.645,167.48,3.906,0,0
1586464775,-38.086,-36.621,115.723,4.395,0,0
1586464775,-35.156,-32.227,232.422,0.488,0,0
1586464775,-37.109,-35.156,166.992,1.465,0,0
1586464775,-41.992,-38.574,-159.668,12.207,0,0
1586464775,-48.828,-31.25,74.707,13.184,0,0
1586464775,-42.48,-24.902,233.398,0,0,0
1586464775,-48.828,-26.367,189.941,-10.254,0,0
1586464775,-63.965,-32.227,172.363,-1.953,0,0
1586464775,-62.5,-31.738,98.633,6.348,0,0
1586464775,-40.039,-23.926,225.586,4.395,0,0
1586464775,-30.273,-21.973,207.52,0,0,0
1586464775,-39.551,-23.926,140.137,0.488,0,0
1586464775,-45.898,-23.926,85.449,-0.488,0,0
1586464775,-47.363,-31.738,-101.562,-5.371,0,0
1586464775,-45.898,-34.668,59.57,-25.879,0,0
1586464775,-46.387,-29.785,156.738,-43.457,0,0
1586464775,-64.453,-26.855,167.48,-38.086,0,0
1586464775,-74.219,-20.02,186.523,-38.574,0,0
1586464775,-64.453,-17.578,75.195,-46.387,0,0
1586464775,-65.918,-16.602,162.109,-58.594,0,0
1586464775,-86.914,-16.602,206.055,-73.73,0,0
1586464775,-106.445,-12.695,172.852,-89.844,0,0
1586464775,-92.285,-8.301,171.387,-94.727,0,0
1586464775,-109.863,-12.695,25.391,-114.258,0,0
1586464775,-161.621,-16.602,20.02,-145.508,0,0
1586464775,-193.848,-18.555,158.203,-177.246,0,0
1586464775,-226.562,-20.02,162.598,-215.82,0,0
1586464775,-249.512,-18.555,118.652,-247.559,0,0
1586464775,-277.344,-18.066,4.395,-272.949,0,0
1586464775,-316.895,-19.043,19.043,-295.898,0,0
1586464775,-335.938,-24.902,149.414,-321.289,0,0
1586464775,-349.609,-29.297,124.023,-351.562,0,0
1586464775,-368.164,-31.738,62.5,-365.723,0,0
1586464775,-385.254,-36.621,34.668,-359.863,0,0
1586464775,-395.02,-38.086,56.641,-363.77,0,0
1586464775,-380.371,-33.691,-47.852,-364.746,0,0
1586464775,-377.93,-34.18,-76.66,-358.398,0,0
1586464775,-396.484,-36.133,67.383,-358.887,0,0
1586464775,-404.297,-42.969,-26.855,-351.562,0,0
1586464775,-390.137,-49.316,-342.773,-338.867,0,0
1586464775,-374.512,-46.387,-45.898,-343.75,0,0
1586464775,-379.883,-46.875,149.902,-347.168,0,0
1586464775,-387.695,-54.688,86.914,-329.102,0,0
1586464775,-368.652,-59.082,-15.625,-306.152,0,0
1586464775,-357.91,-58.594,-34.668,-304.199,0,0
1586464775,-354.98,-58.105,109.375,-299.805,0,0
1586464775,-351.074,-62.5,113.77,-285.645,0,0
1586464775,-340.332,-64.453,46.387,-270.02,0,0
1586464775,-323.73,-56.152,-41.992,-267.09,0,0
1586464775,-311.523,-53.223,-275.391,-262.695,0,0
1586464775,-314.453,-53.223,-29.785,-256.836,0,0
1586464775,-317.871,-48.828,123.535,-249.023,0,0
1586464775,-299.316,-48.34,48.34,-236.328,0,0
1586464775,-276.855,-51.27,37.598,-229.492,0,0
1586464775,-270.02,-54.199,-94.238,-224.121,0,0
1586464775,-277.344,-54.688,-0.488,-226.074,0,0
1586464775,-269.043,-53.711,86.426,-225.098,0,0
1586464775,-244.629,-50.293,58.594,-211.914,0,0
1586464775,-242.676,-49.805,-22.949,-204.102,0,0
1586464775,-247.07,-56.641,-289.062,-191.406,0,0
1586464775,-243.652,-56.641,-156.738,-175.293,0,0
1586464775,-236.328,-54.199,102.539,-180.176,0,0
1586464775,-229.98,-55.664,-9.766,-180.664,0,0
1586464775,-223.145,-59.57,-45.898,-165.039,0,0
1586464775,-218.75,-60.547,-53.711,-151.855,0,0
1586464775,-210.938,-62.012,38.086,-145.996,0,0
1586464775,-189.941,-62.5,90.82,-132.324,0,0
1586464775,-192.871,-57.129,73.73,-131.836,0,0
1586464775,-194.824,-56.152,110.352,-132.324,0,0
1586464775,-176.27,-57.617,-12.207,-122.559,0,0
1586464775,-170.898,-56.152,31.25,-117.188,0,0
1586464775,-164.062,-56.641,20.02,-102.539,0,0
1586464775,-151.855,-58.594,-41.504,-86.914,0,0
1586464775,-150.391,-51.27,35.645,-89.844,0,0
1586464775,-141.602,-45.898,-46.875,-94.727,0,0
1586464775,-140.137,-55.176,-187.5,-88.379,0,0
1586464775,-154.785,-60.547,47.852,-100.586,0,0
1586464775,-141.113,-58.105,100.586,-92.773,0,0
1586464775,-124.023,-55.664,99.609,-87.891,0,0
1586464775,-127.441,-60.059,31.25,-94.238,0,0
1586464775,-124.512,-59.57,-2.93,-78.125,0,0
1586464775,-125,-56.641,97.656,-73.242,0,0
1586464775,-113.281,-63.477,108.398,-75.684,0,0
1586464775,-107.91,-65.43,66.406,-66.895,0,0
1586464775,-116.699,-67.871,-62.5,-56.152,0,0
1586464775,-112.793,-68.359,-79.59,-54.199,0,0
1586464775,-106.445,-62.988,79.59,-62.5,0,0
1586464775,-97.656,-63.965,-34.18,-61.035,0,0
1586464775,-86.426,-64.453,-19.531,-45.41,0,0
1586464775,-85.449,-59.082,60.547,-31.738,0,0
1586464775,-88.867,-57.617,-174.805,-41.992,0,0
1586464775,-92.285,-55.664,5.371,-62.988,0,0
1586464775,-99.121,-60.059,132.812,-60.547,0,0
1586464775,-100.586,-64.941,125,-50.781,0,0
1586464775,-89.844,-62.988,91.309,-43.457,0,0
1586464775,-72.754,-61.035,-274.414,-44.922,0,0
1586464775,-71.777,-61.523,-138.672,-59.082,0,0
1586464775,-79.59,-59.082,134.766,-60.547,0,0
1586464775,-76.172,-61.523,92.773,-57.617,0,0
1586464775,-62.988,-61.523,136.719,-45.898,0,0
1586464775,-45.41,-58.105,-242.676,-27.344,0,0
1586464775,-50.293,-58.594,-285.156,-32.715,0,0
1586464775,-62.988,-55.176,98.633,-36.133,0,0
1586464775,-55.664,-58.594,53.711,-26.367,0,0
1586464775,-41.016,-56.152,44.434,-21.484,0,0
1586464775,-46.387,-52.734,12.207,-28.32,0,0
1586464775,-58.594,-52.246,83.984,-34.18,0,0
1586464775,-50.781,-53.711,16.602,-21.484,0,0
1586464775,-45.41,-58.594,-68.359,-20.508,0,0
1586464775,-48.828,-54.199,99.121,-23.926,0,0
1586464775,-50.781,-53.711,-87.402,0,0,0
1586464775,-57.129,-57.129,-218.75,11.719,0,0
1586464775,-62.5,-55.664,73.242,-8.789,0,0
1586464775,-72.266,-59.57,108.887,-25.391,0,0
1586464775,-65.43,-60.547,71.777,-10.254,0,0
1586464775,-59.57,-55.664,27.832,-10.742,0,0
1586464775,-62.5,-53.223,58.105,-32.715,0,0
1586464775,-52.246,-57.129,57.129,-32.227,0,0
1586464775,-41.504,-56.152,15.625,-15.137,0,0
1586464775,-35.156,-46.875,-19.531,-10.742,0,0
1586464775,-31.738,-42.969,-152.832,-16.602,0,0
1586464775,-34.668,-45.898,-286.621,-22.461,0,0
1586464775,-52.246,-46.387,38.574,-28.32,0,0
1586464775,-46.875,-44.434,161.621,-12.695,0,0
1586464775,-39.062,-49.805,131.348,-3.418,0,0
1586464775,-44.922,-53.711,125,-10.742,0,0
1586464775,-37.109,-55.664,109.863,-9.766,0,0
1586464775,-39.062,-56.641,94.238,-7.812,0,0
1586464775,-42.969,-57.617,36.621,4.883,0,0
1586464775,-29.297,-55.176,98.145,-1.465,0,0
1586464775,-28.809,-54.199,70.801,-14.16,0,0
1586464775,-41.016,-55.664,-161.621,-8.301,0,0
1586464775,-48.34,-56.641,-92.285,-4.395,0,0
1586464775,-38.086,-49.805,25.391,-10.742,0,0
1586464775,-37.598,-43.945,-18.066,-22.949,0,0
1586464775,-53.223,-42.969,-5.371,-24.414,0,0
1586464775,-61.035,-46.875,-238.77,-20.996,0,0
1586464775,-52.734,-45.898,-39.551,-22.461,0,0
1586464775,-43.945,-39.551,142.578,-34.18,0,0
1586464775,-49.316,-43.457,88.867,-29.297,0,0
1586464775,-49.316,-43.457,89.844,-6.348,0,0
1586464775,-50.781,-36.133,-11.23,-17.578,0,0
1586464775,-58.105,-36.133,89.355,-37.598,0,0
1586464775,-63.965,-41.992,-1.465,-36.621,0,0
1586464775,-68.848,-41.016,-14.16,-32.227,0,0
1586464775,-57.617,-43.945,161.133,-24.902,0,0
1586464775,-46.387,-48.828,-83.984,-22.461,0,0
1586464775,-50.293,-46.387,-108.398,-28.32,0,0
1586464775,-44.434,-46.387,122.07,-16.602,0,0
1586464775,-34.18,-41.992,33.203,-0.977,0,0
1586464775,-32.227,-32.715,67.871,-18.555,0,0
1586464775,-37.109,-39.062,-16.602,-43.457,0,0
1586464775,-44.434,-35.645,41.504,-44.434,0,0
1586464775,-37.109,-31.25,145.996,-32.715,0,0
1586464775,-30.273,-35.156,122.07,-28.32,0,0
1586464775,-35.645,-32.715,50.293,-37.598,0,0
1586464775,-46.875,-32.715,-89.844,-40.039,0,0
1586464775,-53.223,-30.762,-124.023,-26.855,0,0
1586464775,-63.477,-23.438,38.086,-31.738,0,0
1586464775,-53.711,-27.344,83.496,-30.762,0,0
1586464775,-37.598,-25.879,145.996,-21.973,0,0
1586464775,-51.27,-22.949,109.375,-28.809,0,0
1586464775,-63.477,-26.855,128.418,-34.18,0,0
1586464775,-60.547,-27.344,136.23,-53.711,0,0
1586464775,-41.992,-25.879,56.641,-56.152,0,0
1586464775,-44.922,-27.832,131.348,-43.457,0,0
1586464775,-54.688,-28.809,126.465,-45.41,0,0
1586464775,-34.668,-28.32,11.719,-49.805,0,0
1586464775,-30.273,-23.926,91.309,-60.547,0,0
1586464775,-58.105,-22.461,148.926,-72.754,0,0
1586464775,-55.664,-25.879,186.523,-58.594,0,0
1586464775,-39.062,-26.367,153.809,-39.551,0,0
1586464775,-34.668,-24.902,-173.34,-49.805,0,0
1586464775,-47.363,-24.902,0.977,-71.777,0,0
1586464775,-63.477,-22.949,184.082,-76.172,0,0
1586464775,-64.453,-20.508,104.98,-66.895,0,0
1586464775,-49.316,-20.508,67.871,-58.105,0,0
1586464775,-40.527,-20.02,-17.578,-62.012,0,0
1586464775,-56.641,-22.949,97.656,-67.871,0,0
1586464775,-58.105,-22.461,63.477,-62.5,0,0
1586464775,-51.27,-16.602,29.785,-74.219,0,0
1586464775,-50.293,-12.207,74.707,-82.52,0,0
1586464775,-58.105,-15.625,-179.199,-76.172,0,0
1586464775,-63.965,-11.719,-166.992,-75.684,0,0
1586464775,-54.199,-4.395,127.441,-75.684,0,0
1586464775,-54.688,-4.883,147.949,-78.613,0,0
1586464775,-55.664,-10.254,133.789,-80.566,0,0
1586464775,-45.898,-10.254,6.348,-61.035,0,0
1586464775,-46.875,-12.207,91.797,-56.641,0,0
1586464775,-46.387,-17.09,158.691,-60.059,0,0
1586464775,-41.992,-15.137,120.117,-50.293,0,0
1586464775,-42.969,-11.23,76.172,-52.734,0,0
1586464775,-38.086,-6.348,56.641,-54.688,0,0
1586464775,-37.109,-7.812,117.188,-63.477,0,0
1586464775,-47.852,-19.531,79.59,-73.73,0,0
1586464775,-52.734,-20.508,102.539,-63.477,0,0
1586464775,-61.523,-11.719,227.051,-57.617,0,0
1586464775,-57.129,-12.207,51.27,-66.895,0,0
1586464775,-38.086,-16.602,-230.957,-64.941,0,0
1586464775,-52.246,-8.789,46.875,-73.73,0,0
1586464775,-64.941,-7.812,167.48,-78.125,0,0
1586464775,-42.969,-8.301,93.75,-65.43,0,0
1586464775,-41.016,-5.371,48.828,-66.406,0,0
1586464775,-51.27,-9.277,52.246,-70.801,0,0
1586464775,-41.992,-8.301,107.91,-59.082,0,0
1586464775,-37.109,-9.766,131.836,-59.57,0,0
1586464775,-36.621,-10.742,151.367,-64.453,0,0
1586464775,-33.203,-7.324,15.137,-57.617,0,0
1586464775,-39.551,-6.836,-247.07,-50.781,0,0
1586464775,-42.969,-7.324,-38.574,-46.875,0,0
1586464775,-44.434,-9.766,174.805,-57.129,0,0
1586464775,-51.27,-14.648,163.086,-72.754,0,0
1586464775,-53.223,-14.648,134.277,-68.359,0,0
1586464775,-43.945,-12.207,119.629,-54.688,0,0
1586464775,-38.086,-13.184,183.594,-50.293,0,0
1586464775,-34.668,-11.719,93.262,-59.082,0,0
1586464775,-37.598,-13.184,134.277,-62.012,0,0
1586464775,-40.527,-12.695,137.695,-56.641,0,0
1586464775,-39.062,-12.207,-238.281,-65.43,0,0
1586464775,-39.062,-13.672,-12.695,-73.73,0,0
1586464775,-41.504,-15.137,191.895,-78.125,0,0
1586464775,-43.945,-9.766,135.742,-68.359,0,0
1586464775,-34.668,-7.812,127.441,-54.199,0,0
1586464775,-24.414,-13.672,5.859,-63.965,0,0
1586464775,-27.832,-13.672,83.008,-71.289,0,0
1586464775,-38.086,-11.719,173.34,-51.758,0,0
1586464775,-38.086,-7.324,176.758,-37.598,0,0
1586464775,-38.574,-6.348,110.352,-54.199,0,0
1586464775,-37.598,-3.906,-161.621,-62.5,0,0
1586464776,-43.945,4.395,-58.594,-51.758,0,0
1586464776,-48.34,1.465,151.367,-42.969,0,0
1586464776,-24.414,-2.441,59.082,-44.434,0,0
1586464776,-19.531,-0.488,128.418,-52.734,0,0
1586464776,-32.227,-4.883,83.984,-52.734,0,0
1586464776,-31.25,-1.465,135.742,-47.852,0,0
1586464776,-30.273,0,190.43,-51.27,0,0
1586464776,-21.973,-1.465,134.277,-56.152,0,0
1586464776,-27.344,-2.93,133.789,-56.152,0,0
1586464776,-35.156,-1.953,-44.922,-45.41,0,0
1586464776,-28.809,-4.395,-134.766,-36.621,0,0
1586464776,-29.297,-4.395,-23.926,-48.828,0,0
1586464776,-32.715,1.465,13.184,-59.082,0,0
1586464776,-33.691,1.465,143.555,-54.688,0,0
1586464776,-26.367,-1.465,2.93,-42.969,0,0
1586464776,-11.23,-4.883,-245.117,-35.645,0,0
1586464776,-13.184,-6.348,26.855,-50.781,0,0
1586464776,-23.926,-7.812,127.441,-57.617,0,0
1586464776,-21.484,-0.977,112.305,-56.152,0,0
1586464776,-12.207,2.441,51.27,-57.617,0,0
1586464776,-6.836,-0.977,-13.672,-47.363,0,0
1586464776,-9.277,1.465,82.52,-38.086,0,0
1586464776,-13.672,2.441,-66.406,-36.621,0,0
1586464776,-9.277,4.395,6.836,-37.109,0,0
1586464776,-1.465,3.418,73.242,-41.504,0,0
1586464776,4.395,-0.488,-303.223,-37.109,0,0
1586464776,-1.465,-1.465,-108.887,-34.668,0,0
1586464776,-9.277,-0.488,92.285,-40.527,0,0
1586464776,0.488,5.859,137.695,-50.293,0,0
1586464776,4.395,4.395,135.742,-50.293,0,0
1586464776,-2.93,4.883,32.227,-34.668,0,0
1586464776,-1.953,5.371,107.422,-21.973,0,0
1586464776,8.301,2.441,116.699,-26.367,0,0
1586464776,13.672,0,129.883,-28.809,0,0
1586464776,10.254,-2.441,2.441,-18.555,0,0
1586464776,6.348,-3.418,-280.762,-16.602,0,0
1586464776,6.836,0.977,-13.672,-27.344,0,0
1586464776,13.672,1.953,145.996,-34.668,0,0
1586464776,14.648,0.977,78.125,-29.785,0,0
1586464776,5.859,-0.488,131.836,-22.949,0,0
1586464776,6.348,-3.418,1.465,-18.066,0,0
1586464776,7.812,0.977,55.664,-31.25,0,0
1586464776,1.953,4.883,124.023,-41.504,0,0
1586464776,-5.859,3.418,109.375,-24.902,0,0
1586464776,0,1.465,115.723,-11.719,0,0
1586464776,8.301,-1.465,-70.312,-19.043,0,0
1586464776,-4.395,-2.93,-45.41,-36.621,0,0
1586464776,-13.672,-3.418,84.961,-34.668,0,0
1586464776,-14.648,-6.836,150.879,-27.344,0,0
1586464776,-10.742,-7.812,117.676,-35.645,0,0
1586464776,-5.859,-11.719,-75.195,-42.48,0,0
1586464776,-6.348,-11.23,41.992,-25.879,0,0
1586464776,-21.973,-8.789,139.16,-12.207,0,0
1586464776,-36.621,-9.277,104.004,-30.762,0,0
1586464776,-30.273,-9.277,145.02,-44.922,0,0
1586464776,-36.133,-12.695,-41.016,-43.457,0,0
1586464776,-39.062,-15.625,-128.906,-41.016,0,0
1586464776,-33.203,-13.184,97.168,-35.156,0,0
1586464776,-33.691,-18.066,53.711,-33.691,0,0
1586464776,-30.762,-18.555,48.828,-41.504,0,0
1586464776,-39.062,-18.555,29.785,-38.086,0,0
1586464776,-36.621,-23.926,-372.559,-29.297,0,0
1586464776,-22.461,-21.484,-173.34,-32.227,0,0
1586464776,-15.625,-18.555,172.852,-36.621,0,0
1586464776,-20.996,-18.555,131.348,-29.785,0,0
1586464776,-30.273,-20.508,123.047,-29.785,0,0
1586464776,-24.902,-17.09,178.711,-31.25,0,0
1586464776,-19.043,-15.625,156.738,-23.926,0,0
1586464776,-28.32,-19.043,123.047,-25.391,0,0
1586464776,-44.434,-20.508,169.922,-38.574,0,0
1586464776,-34.18,-22.949,10.254,-43.945,0,0
1586464776,-16.113,-30.762,-353.027,-39.062,0,0
1586464776,-17.09,-28.809,-42.969,-27.832,0,0
1586464776,-28.809,-24.902,143.066,-20.02,0,0
1586464776,-38.574,-24.414,0,-24.902,0,0
1586464776,-31.25,-24.902,65.918,-30.762,0,0
1586464776,-31.25,-25.879,36.621,-38.086,0,0
1586464776,-37.109,-20.508,135.254,-34.18,0,0
1586464776,-30.762,-20.996,142.09,-30.273,0,0
1586464776,-28.32,-26.855,129.395,-41.016,0,0
1586464776,-18.555,-25.391,107.422,-31.25,0,0
1586464776,-23.926,-24.414,-8.789,-24.902,0,0
1586464776,-35.645,-25.391,4.883,-32.715,0,0
1586464776,-20.508,-22.949,50.781,-27.832,0,0
1586464776,-12.695,-18.066,114.258,-27.344,0,0
1586464776,-24.414,-20.508,123.047,-20.02,0,0
1586464776,-25.391,-27.832,-131.348,3.418,0,0
1586464776,-19.531,-24.414,-110.84,-5.371,0,0
1586464776,-19.531,-17.578,129.883,-37.109,0,0
1586464776,-21.484,-19.043,135.254,-39.551,0,0
1586464776,-20.02,-22.461,114.258,-14.648,0,0
1586464776,-19.043,-21.484,-6.836,-6.836,0,0
1586464776,-29.785,-17.09,60.059,-34.668,0,0
1586464776,-28.32,-23.926,102.539,-40.039,0,0
1586464776,-18.555,-23.438,-39.551,-15.137,0,0
1586464776,-20.508,-23.438,11.23,-8.301,0,0
1586464776,-26.367,-32.227,-49.316,-19.043,0,0
1586464776,-38.086,-28.32,-195.801,-33.691,0,0
1586464776,-41.992,-24.414,67.871,-29.785,0,0
1586464776,-33.203,-25.391,188.477,-17.578,0,0
1586464776,-26.367,-25.879,134.277,-13.672,0,0
1586464776,-21.484,-26.855,77.148,-22.949,0,0
1586464776,-19.043,-21.973,94.727,-30.273,0,0
1586464776,-28.809,-21.484,144.531,-26.855,0,0
1586464776,-36.133,-26.367,109.863,-23.438,0,0
1586464776,-27.832,-22.949,147.949,-23.438,0,0
1586464776,-38.574,-22.949,-28.32,-35.156,0,0
1586464776,-51.758,-26.367,-221.68,-38.086,0,0
1586464776,-36.621,-20.508,72.754,-28.32,0,0
1586464776,-20.508,-22.461,152.344,-31.738,0,0
1586464776,-27.832,-29.297,107.422,-42.48,0,0
1586464776,-33.203,-32.715,104.492,-41.992,0,0
1586464776,-32.715,-31.738,46.387,-30.273,0,0
1586464776,-23.438,-28.809,138.672,-26.367,0,0
1586464776,-22.949,-31.738,149.902,-40.039,0,0
1586464776,-30.762,-29.785,142.578,-41.016,0,0
1586464776,-28.32,-28.32,64.941,-24.414,0,0
1586464776,-22.461,-32.227,33.203,-18.066,0,0
1586464776,-22.461,-30.762,42.48,-28.32,0,0
1586464776,-29.785,-28.32,-10.742,-34.18,0,0
1586464776,-40.039,-27.832,118.164,-36.621,0,0
1586464776,-39.062,-24.414,81.543,-36.133,0,0
1586464776,-26.367,-26.367,-221.68,-31.738,0,0
1586464776,-20.996,-26.855,-7.812,-26.855,0,0
1586464776,-24.902,-22.949,155.762,-12.695,0,0
1586464776,-29.297,-25.879,134.277,-14.648,0,0
1586464776,-34.668,-27.344,134.766,-29.785,0,0
1586464776,-35.156,-25.879,-17.09,-26.367,0,0
1586464776,-36.621,-18.066,89.844,-26.367,0,0
1586464776,-32.715,-16.113,126.953,-19.043,0,0
1586464776,-21.973,-23.926,0.488,-23.438,0,0
1586464776,-14.648,-23.926,30.762,-30.762,0,0
1586464776,-10.742,-22.461,-116.211,-13.672,0,0
1586464776,-32.227,-22.461,-128.906,-18.066,0,0
1586464776,-41.504,-18.555,105.469,-32.715,0,0
1586464776,-23.926,-20.508,116.699,-34.668,0,0
1586464776,-37.598,-23.438,103.516,-48.34,0,0
1586464776,-44.434,-20.02,20.02,-41.504,0,0
1586464776,-26.367,-20.02,77.148,-20.996,0,0
1586464776,-16.113,-22.949,160.645,-18.066,0,0
1586464776,-26.855,-19.043,146.484,-29.297,0,0
1586464776,-39.062,-14.648,162.598,-40.039,0,0
1586464776,-34.668,-20.508,-18.066,-41.992,0,0
1586464776,-20.508,-24.414,-106.934,-40.039,0,0
1586464776,-14.16,-19.531,114.746,-35.645,0,0
1586464776,-11.719,-25.391,117.676,-20.996,0,0
1586464776,-25.391,-25.391,31.25,-27.832,0,0
1586464776,-31.25,-22.461,-8.301,-34.668,0,0
1586464776,-18.555,-17.09,77.148,-33.691,0,0
1586464776,-29.785,-15.137,158.691,-45.898,0,0
1586464776,-29.785,-18.066,155.762,-35.645,0,0
1586464776,-18.555,-20.508,135.742,-29.297,0,0
1586464776,-15.137,-26.855,149.902,-38.574,0,0
1586464776,-9.766,-24.902,151.855,-28.809,0,0
1586464776,-26.367,-22.461,67.383,-29.297,0,0
1586464776,-27.832,-21.973,67.383,-32.715,0,0
1586464776,-8.301,-23.926,177.246,-23.438,0,0
1586464776,-15.625,-24.414,133.301,-27.832,0,0
1586464776,-22.461,-20.996,-200.195,-32.227,0,0
1586464776,-26.855,-16.113,20.996,-40.039,0,0
1586464776,-9.766,-18.555,194.824,-21.973,0,0
1586464776,2.441,-20.508,92.285,-13.672,0,0
1586464776,-10.742,-20.02,51.758,-22.461,0,0
1586464776,-19.043,-23.926,32.227,-19.531,0,0
1586464776,-17.578,-23.926,145.996,-24.902,0,0
1586464776,-12.695,-20.02,126.953,-30.762,0,0
1586464776,-13.672,-23.926,27.832,-29.785,0,0
1586464776,-19.043,-22.461,-1.953,-31.738,0,0
1586464776,-20.508,-19.043,-170.898,-37.109,0,0
1586464776,-4.883,-16.602,-62.5,-22.461,0,0
1586464776,3.418,-18.555,117.188,-3.418,0,0
1586464776,-17.09,-20.02,115.234,-23.926,0,0
1586464776,-26.855,-19.043,118.164,-32.715,0,0
1586464776,-13.672,-21.484,47.852,-24.902,0,0
1586464776,-11.719,-24.902,103.027,-27.832,0,0
1586464776,-26.367,-23.926,139.648,-32.227,0,0
1586464776,-20.508,-27.344,79.59,-31.738,0,0
1586464776,-4.395,-29.785,78.125,-26.367,0,0
1586464776,-6.348,-28.32,-86.426,-32.227,0,0
1586464776,-23.926,-30.762,-108.887,-50.781,0,0
1586464776,-28.32,-31.25,133.789,-48.828,0,0
1586464776,-12.207,-27.832,138.672,-28.809,0,0
1586464776,-1.465,-26.367,140.137,-39.551,0,0
1586464776,-5.859,-28.809,61.035,-51.758,0,0
1586464776,-20.02,-31.738,93.75,-45.898,0,0
1586464776,-15.137,-29.297,154.785,-41.504,0,0
1586464776,-1.953,-27.832,157.227,-40.527,0,0
1586464776,-9.277,-31.25,160.156,-39.551,0,0
1586464776,-26.367,-32.715,97.656,-34.668,0,0
1586464776,-26.855,-31.25,106.934,-29.297,0,0
1586464776,-19.531,-34.18,71.777,-26.855,0,0
1586464776,-20.02,-31.738,40.527,-28.32,0,0
1586464776,-17.09,-30.762,153.32,-22.461,0,0
1586464776,-12.207,-31.25,67.383,-10.254,0,0
1586464776,-7.812,-27.832,-270.02,-8.789,0,0
1586464776,-10.254,-23.926,15.625,-25.879,0,0
1586464776,-12.207,-20.508,194.336,-28.32,0,0
1586464776,-22.461,-25.879,137.695,-24.902,0,0
1586464776,-12.207,-29.297,171.875,-20.02,0,0
1586464776,4.883,-25.391,154.297,-17.09,0,0
1586464776,-15.625,-20.508,178.223,-26.367,0,0
1586464776,-27.344,-17.578,134.766,-30.273,0,0
1586464776,-20.02,-22.949,55.664,-20.02,0,0
1586464776,-14.648,-26.367,8.789,-17.09,0,0
1586464776,-12.695,-27.344,-212.891,-20.02,0,0
1586464776,-26.855,-25.391,55.176,-29.297,0,0
1586464776,-38.574,-28.809,192.383,-40.039,0,0
1586464776,-21.973,-28.809,77.148,-31.738,0,0
1586464776,-18.066,-26.367,130.859,-26.367,0,0
1586464776,-35.156,-26.855,12.207,-30.273,0,0
1586464776,-42.48,-22.949,115.723,-26.855,0,0
1586464776,-34.668,-22.949,148.926,-20.996,0,0
1586464776,-41.504,-27.344,163.574,-31.738,0,0
1586464776,-43.457,-24.414,167.48,-31.738,0,0
1586464776,-34.18,-21.484,-41.992,-12.207,0,0
1586464776,-28.809,-21.484,37.598,-14.16,0,0
1586464776,-30.762,-19.043,166.504,-36.621,0,0
1586464776,-33.691,-18.066,123.535,-30.273,0,0
1586464776,-29.785,-19.531,134.277,-6.348,0,0
1586464776,-34.18,-18.066,-16.602,-17.09,0,0
1586464776,-36.621,-15.137,-79.102,-33.203,0,0
1586464776,-30.273,-13.672,90.82,-36.133,0,0
1586464776,-30.273,-16.602,61.035,-28.32,0,0
1586464776,-36.133,-23.438,123.535,-20.508,0,0
1586464776,-20.508,-20.508,124.023,-31.25,0,0
1586464776,-14.16,-25.391,131.348,-39.062,0,0
1586464776,-29.297,-27.344,105.469,-33.203,0,0
1586464776,-38.086,-22.461,70.801,-29.785,0,0
1586464776,-30.762,-24.902,187.012,-36.133,0,0
1586464776,-24.902,-24.902,34.668,-39.062,0,0
1586464776,-22.461,-21.484,-168.945,-27.832,0,0
1586464776,-21.484,-16.602,134.277,-19.043,0,0
1586464776,-15.625,-17.578,218.75,-19.531,0,0
1586464776,-7.324,-20.02,166.992,-30.273,0,0
1586464776,-13.672,-21.973,163.574,-32.715,0,0
1586464776,-26.855,-23.926,162.109,-29.785,0,0
1586464776,-26.367,-25.879,150.391,-28.32,0,0
1586464776,-20.996,-27.344,69.336,-27.344,0,0
1586464776,-25.391,-27.832,104.98,-32.715,0,0
1586464776,-33.691,-32.227,68.359,-38.086,0,0
1586464776,-41.992,-35.645,-149.414,-30.273,0,0
1586464776,-41.016,-29.785,38.086,-29.785,0,0
1586464776,-35.156,-30.762,129.883,-39.062,0,0
1586464776,-44.922,-32.715,182.617,-34.18,0,0
1586464776,-46.875,-26.855,198.242,-29.297,0,0
1586464776,-41.504,-28.32,49.805,-38.086,0,0
1586464776,-48.828,-32.715,138.672,-49.316,0,0
1586464776,-63.477,-36.133,174.316,-57.617,0,0
1586464776,-61.035,-29.785,152.832,-51.27,0,0
1586464776,-52.734,-28.809,136.719,-43.457,0,0
1586464776,-42.969,-33.691,-40.527,-45.898,0,0
1586464776,-28.32,-26.855,72.754,-44.922,0,0
1586464776,-35.156,-26.367,138.672,-32.227,0,0
1586464776,-43.457,-31.738,117.188,-31.738,0,0
1586464776,-34.18,-27.832,146.484,-39.551,0,0
1586464776,-23.438,-28.32,-100.098,-27.344,0,0
1586464777,-39.062,-32.715,36.133,-26.855,0,0
1586464777,-49.316,-28.32,177.734,-36.133,0,0
1586464777,-40.527,-27.344,148.438,-37.598,0,0
1586464777,-34.668,-31.738,141.113,-40.527,0,0
1586464777,-29.785,-31.738,9.277,-28.809,0,0
1586464777,-32.227,-29.785,104.004,-21.484,0,0
1586464777,-41.504,-31.738,91.309,-30.273,0,0
1586464777,-45.898,-34.18,19.043,-41.016,0,0
1586464777,-55.176,-34.18,173.828,-44.922,0,0
1586464777,-54.199,-37.598,26.367,-27.832,0,0
1586464777,-38.086,-39.062,-68.359,-17.09,0,0
1586464777,-39.062,-38.086,125.977,-35.156,0,0
1586464777,-33.203,-31.738,116.211,-39.551,0,0
1586464777,-18.555,-26.367,134.766,-19.531,0,0
1586464777,-26.855,-31.738,96.68,-20.508,0,0
1586464777,-32.227,-29.297,109.863,-41.016,0,0
1586464777,-26.855,-22.949,163.086,-43.457,0,0
1586464777,-26.855,-24.902,129.395,-37.598,0,0
1586464777,-27.344,-28.809,151.855,-20.02,0,0
1586464777,-16.602,-30.762,73.73,-10.742,0,0
1586464777,-21.484,-37.598,-193.848,-28.32,0,0
1586464777,-37.109,-35.645,65.43,-41.504,0,0
1586464777,-27.344,-27.832,252.441,-26.367,0,0
1586464777,-21.484,-27.832,170.898,-27.832,0,0
1586464777,-16.602,-31.738,115.234,-29.785,0,0
1586464777,-14.648,-32.715,194.336,-21.484,0,0
1586464777,-29.297,-29.297,155.273,-27.344,0,0
1586464777,-32.715,-28.32,31.25,-28.809,0,0
1586464777,-25.391,-32.227,169.434,-36.621,0,0
1586464777,-19.531,-27.832,121.094,-36.621,0,0
1586464777,-21.973,-27.832,-62.5,-21.973,0,0
1586464777,-32.715,-30.762,37.109,-19.043,0,0
1586464777,-38.086,-26.367,166.992,-32.715,0,0
1586464777,-41.992,-27.832,137.695,-45.898,0,0
1586464777,-39.062,-32.715,30.273,-41.504,0,0
1586464777,-30.762,-27.344,-195.312,-17.578,0,0
1586464777,-24.902,-21.973,17.09,-17.09,0,0
1586464777,-13.184,-20.02,190.918,-18.555,0,0
1586464777,-11.719,-20.02,157.715,-2.93,0,0
1586464777,-22.949,-24.414,144.531,-2.441,0,0
1586464777,-25.391,-27.344,-26.367,-7.324,0,0
1586464777,-24.902,-26.855,69.824,-20.508,0,0
1586464777,-26.367,-27.344,81.055,-31.25,0,0
1586464777,-19.531,-27.832,5.859,-4.395,0,0
1586464777,-10.254,-29.297,99.121,11.719,0,0
1586464777,-17.578,-28.32,-48.34,-13.672,0,0
1586464777,-29.297,-26.855,-79.102,-21.973,0,0
1586464777,-27.344,-25.879,198.73,-13.672,0,0
1586464777,-21.484,-23.926,197.754,-10.742,0,0
1586464777,-22.949,-26.855,153.809,-23.926,0,0
1586464777,-25.879,-29.785,68.359,-40.527,0,0
1586464777,-29.785,-24.414,106.445,-39.062,0,0
1586464777,-35.645,-24.902,208.008,-36.621,0,0
1586464777,-25.879,-28.32,166.992,-31.25,0,0
1586464777,-18.555,-30.273,110.84,-27.832,0,0
1586464777,-35.645,-32.227,-20.508,-31.738,0,0
1586464777,-40.039,-29.785,-127.93,-25.391,0,0
1586464777,-28.809,-25.391,83.496,-23.438,0,0
1586464777,-27.832,-23.926,131.836,-42.969,0,0
1586464777,-29.785,-26.367,150.879,-53.223,0,0
1586464777,-38.574,-29.785,133.789,-40.039,0,0
1586464777,-49.316,-28.809,104.98,-36.133,0,0
1586464777,-44.434,-22.949,124.512,-48.34,0,0
1586464777,-44.922,-26.855,133.789,-58.594,0,0
1586464777,-52.246,-31.25,153.809,-53.223,0,0
1586464777,-43.457,-30.273,108.398,-35.156,0,0
1586464777,-29.785,-32.227,28.32,-23.438,0,0
1586464777,-30.273,-31.25,92.285,-20.508,0,0
1586464777,-40.039,-29.785,130.371,-26.855,0,0
1586464777,-50.781,-33.203,178.223,-37.109,0,0
1586464777,-32.227,-25.879,158.203,-22.461,0,0
1586464777,-8.301,-29.297,-193.848,-6.348,0,0
1586464777,-27.832,-33.691,-14.648,-20.996,0,0
1586464777,-37.109,-26.367,202.148,-23.926,0,0
1586464777,-26.367,-25.879,154.785,-15.137,0,0
1586464777,-34.668,-32.227,134.766,-25.879,0,0
1586464777,-37.109,-36.621,58.594,-31.738,0,0
1586464777,-43.945,-33.691,167.48,-27.344,0,0
1586464777,-44.434,-31.25,124.023,-20.02,0,0
1586464777,-37.598,-33.203,75.195,-24.902,0,0
1586464777,-41.504,-33.203,150.879,-31.738,0,0
1586464777,-40.039,-35.156,-122.07,-23.926,0,0
1586464777,-35.156,-33.203,-0.488,-16.113,0,0
1586464777,-30.762,-32.227,234.863,-18.066,0,0
1586464777,-25.879,-36.133,148.438,-24.414,0,0
1586464777,-26.855,-35.645,163.574,-23.926,0,0
1586464777,-24.414,-34.18,-104.492,-13.184,0,0
1586464777,-21.973,-30.762,-131.836,-7.812,0,0
1586464777,-20.508,-27.344,192.871,-20.996,0,0
1586464777,-27.344,-25.879,145.996,-27.832,0,0
1586464777,-34.18,-30.273,101.562,-25.879,0,0
1586464777,-23.926,-32.715,-1.465,-21.484,0,0
1586464777,-18.066,-25.879,-41.992,-29.297,0,0
1586464777,-24.902,-22.461,162.598,-36.133,0,0
1586464777,-29.297,-22.949,193.359,-22.461,0,0
1586464777,-24.902,-26.855,189.453,-14.16,0,0
1586464777,-20.508,-30.273,121.582,-23.926,0,0
1586464777,-23.438,-29.785,138.672,-35.156,0,0
1586464777,-21.484,-27.832,188.965,-17.09,0,0
1586464777,-23.926,-26.855,196.289,-9.766,0,0
1586464777,-22.461,-24.902,156.738,-16.602,0,0
1586464777,-17.09,-27.344,98.145,-22.461,0,0
1586464777,-28.32,-30.762,71.777,-26.367,0,0
1586464777,-39.062,-26.367,64.453,-25.391,0,0
1586464777,-38.086,-27.344,113.281,-29.297,0,0
1586464777,-30.762,-30.762,170.41,-29.297,0,0
1586464777,-28.809,-30.273,8.301,-24.902,0,0
1586464777,-33.203,-31.738,-195.312,-17.578,0,0
1586464777,-32.715,-34.18,85.449,-14.16,0,0
1586464777,-30.273,-34.18,205.078,-29.785,0,0
1586464777,-37.109,-33.691,171.387,-43.457,0,0
1586464777,-38.086,-25.879,125.488,-33.203,0,0
1586464777,-37.598,-21.484,-19.043,-15.625,0,0
1586464777,-39.062,-23.438,147.461,-24.902,0,0
1586464777,-31.738,-22.949,103.027,-33.691,0,0
1586464777,-38.574,-20.996,118.164,-30.273,0,0
1586464777,-38.086,-16.113,142.578,-27.832,0,0
1586464777,-25.879,-20.02,-213.867,-26.855,0,0
1586464777,-28.32,-20.02,45.898,-34.668,0,0
1586464777,-28.809,-14.648,230.957,-26.855,0,0
1586464777,-38.574,-21.484,144.531,-18.066,0,0
1586464777,-39.062,-25.391,136.719,-26.367,0,0
1586464777,-28.809,-21.973,44.922,-31.738,0,0
1586464777,-34.18,-24.414,127.93,-27.344,0,0
1586464777,-35.156,-22.949,170.41,-11.719,0,0
1586464777,-32.227,-21.973,223.633,-3.906,0,0
1586464777,-35.156,-27.344,103.027,-25.879,0,0
1586464777,-41.992,-28.32,-69.336,-40.039,0,0
1586464777,-43.457,-20.508,109.863,-30.273,0,0
1586464777,-41.992,-26.367,166.992,-25.879,0,0
1586464777,-37.598,-36.133,104.492,-24.902,0,0
1586464777,-33.691,-31.25,168.457,-31.738,0,0
1586464777,-43.945,-30.273,22.461,-36.621,0,0
1586464777,-48.34,-27.344,95.215,-22.461,0,0
1586464777,-31.25,-23.438,219.238,-12.207,0,0
1586464777,-20.996,-21.973,173.34,-19.043,0,0
1586464777,-26.855,-17.09,224.121,-24.902,0,0
1586464777,-40.039,-24.414,35.645,-31.738,0,0
1586464777,-36.621,-31.738,-305.176,-29.785,0,0
1586464777,-22.949,-26.367,-2.93,-41.504,0,0
1586464777,-12.207,-25.391,204.59,-38.086,0,0
1586464777,-6.348,-22.461,168.457,-12.207,0,0
1586464777,-12.695,-28.32,73.242,-10.254,0,0
1586464777,-20.02,-31.738,43.457,-32.227,0,0
1586464777,-18.066,-23.926,171.875,-45.41,0,0
1586464777,-16.113,-22.461,173.34,-36.133,0,0
1586464777,-19.043,-24.414,180.176,-23.438,0,0
1586464777,-17.578,-26.855,122.07,-29.297,0,0
1586464777,-13.184,-30.762,138.672,-34.668,0,0
1586464777,-18.066,-32.715,193.848,-27.344,0,0
1586464777,-29.297,-33.691,91.309,-25.879,0,0
1586464777,-22.461,-28.32,131.836,-36.133,0,0
1586464777,-9.766,-26.367,122.07,-40.039,0,0
1586464777,-12.695,-30.762,-253.906,-32.227,0,0
1586464777,-18.555,-26.855,-19.531,-21.973,0,0
1586464777,-14.648,-20.996,264.648,-18.066,0,0
1586464777,-8.789,-21.484,183.594,-37.598,0,0
1586464777,-21.973,-21.484,163.574,-45.41,0,0
1586464777,-32.227,-22.461,115.723,-34.18,0,0
1586464777,-25.879,-27.832,162.109,-26.855,0,0
1586464777,-8.789,-25.879,167.48,-22.949,0,0
1586464777,-7.812,-23.438,149.902,-25.391,0,0
1586464777,-16.602,-25.391,37.109,-27.344,0,0
1586464777,-11.719,-24.414,-218.75,-12.695,0,0
1586464777,-7.324,-32.227,-58.105,-19.043,0,0
1586464777,3.906,-36.133,180.176,-34.18,0,0
1586464777,11.719,-29.785,162.598,-28.32,0,0
1586464777,3.906,-32.227,114.258,-24.902,0,0
1586464777,-1.465,-36.133,42.48,-21.973,0,0
1586464777,9.766,-30.273,146.973,-19.043,0,0
1586464777,2.441,-25.391,171.875,-16.113,0,0
1586464777,-24.414,-22.461,182.129,-23.438,0,0
1586464777,-16.602,-22.461,186.035,-17.09,0,0
1586464777,-1.465,-29.297,56.152,-6.836,0,0
1586464777,0,-26.855,33.203,-13.184,0,0
1586464777,-18.555,-24.414,98.633,-31.25,0,0
1586464777,-29.785,-27.344,137.695,-42.48,0,0
1586464777,-8.301,-27.344,116.211,-29.785,0,0
1586464777,-4.883,-22.949,-29.785,-24.414,0,0
1586464777,-18.066,-23.438,-70.312,-33.203,0,0
1586464777,-16.113,-23.926,172.363,-30.273,0,0
1586464777,-10.742,-27.344,203.125,-10.254,0,0
1586464777,-5.371,-31.738,136.719,-10.742,0,0
1586464777,-12.207,-31.738,84.473,-26.367,0,0
1586464777,-28.32,-34.18,151.367,-23.438,0,0
1586464777,-20.508,-32.227,171.875,-17.09,0,0
1586464777,-13.184,-31.25,46.387,-24.414,0,0
1586464777,-21.484,-31.25,81.055,-29.785,0,0
1586464777,-26.367,-26.855,31.25,-21.484,0,0
1586464777,-26.367,-26.367,-213.867,-18.555,0,0
1586464777,-19.531,-27.344,58.594,-28.32,0,0
1586464777,-12.207,-32.715,208.496,-32.715,0,0
1586464777,-22.949,-35.156,120.117,-28.809,0,0
1586464777,-24.414,-32.715,107.91,-22.949,0,0
1586464777,-12.207,-30.762,142.09,-27.344,0,0
1586464777,-4.883,-29.297,175.293,-28.32,0,0
1586464777,-12.695,-26.855,176.27,-29.785,0,0
1586464777,-22.949,-25.391,173.34,-24.902,0,0
1586464777,-15.625,-31.738,47.363,-20.508,0,0
1586464777,-3.906,-34.18,-208.984,-17.578,0,0
1586464777,-11.23,-30.762,51.27,-26.367,0,0
1586464777,-23.926,-25.391,164.551,-26.367,0,0
1586464777,-22.461,-25.879,40.039,-15.137,0,0
1586464777,-13.184,-21.973,130.371,-24.414,0,0
1586464777,-11.23,-25.391,83.008,-35.156,0,0
1586464777,-12.695,-22.949,181.152,-30.762,0,0
1586464777,-12.207,-18.066,225.586,-23.438,0,0
1586464777,-3.418,-22.949,152.344,-12.207,0,0
1586464777,-7.324,-24.902,64.453,-19.043,0,0
1586464777,-17.578,-27.832,23.926,-28.809,0,0
1586464777,-16.602,-25.391,45.41,-21.973,0,0
1586464777,-16.602,-24.902,84.473,-22.949,0,0
1586464777,-20.02,-27.344,153.32,-29.297,0,0
1586464777,-15.137,-26.367,189.453,-27.344,0,0
1586464777,-14.16,-25.879,-25.391,-15.137,0,0
1586464777,-7.324,-21.973,-75.195,0.488,0,0
1586464777,-3.906,-15.625,145.02,-8.789,0,0
1586464777,-12.207,-14.16,164.551,-18.066,0,0
1586464777,-27.344,-18.066,143.555,-16.113,0,0
1586464777,-26.855,-18.066,108.887,-10.254,0,0
1586464777,-18.066,-14.648,176.758,-18.066,0,0
1586464777,-17.09,-21.484,186.523,-27.832,0,0
1586464777,-24.414,-28.809,80.566,-12.207,0,0
1586464777,-23.438,-28.32,100.586,-2.93,0,0
1586464777,-9.277,-29.785,-12.207,-11.23,0,0
1586464777,-6.348,-28.32,-182.617,-13.184,0,0
1586464777,-20.02,-22.949,51.758,-20.02,0,0
1586464777,-31.25,-24.902,180.664,-21.973,0,0
1586464777,-17.09,-25.391,153.32,-13.672,0,0
1586464777,-14.16,-29.297,84.473,-26.855,0,0
1586464777,-30.273,-33.691,117.676,-38.086,0,0
1586464777,-22.461,-27.832,175.781,-13.672,0,0
1586464777,-12.207,-28.32,161.621,-4.883,0,0
1586464777,-12.207,-28.32,182.129,-20.996,0,0
1586464777,-17.09,-25.391,19.531,-28.809,0,0
1586464777,-26.855,-29.785,-240.234,-26.855,0,0
1586464777,-20.996,-31.738,76.172,-24.414,0,0
1586464777,-5.371,-30.762,208.008,-32.227,0,0
1586464777,-10.742,-29.297,89.355,-40.527,0,0
1586464777,-19.043,-30.273,58.105,-33.691,0,0
1586464777,-18.066,-27.344,118.652,-17.09,0,0
1586464777,-22.461,-27.344,226.074,-23.438,0,0
1586464777,-22.461,-32.715,174.805,-32.227,0,0
1586464777,-22.461,-29.785,140.625,-15.137,0,0
1586464777,-27.832,-25.879,119.629,-17.09,0,0
1586464777,-29.297,-28.809,47.852,-37.598,0,0
1586464777,-32.227,-33.203,29.785,-38.086,0,0
1586464777,-39.551,-32.715,74.707,-30.762,0,0
1586464777,-56.641,-28.32,163.086,-31.25,0,0
1586464777,-58.594,-29.297,107.422,-32.227,0,0
1586464777,-45.898,-34.18,-155.762,-33.203,0,0
1586464777,-41.992,-32.715,31.25,-33.691,0,0
1586464777,-40.527,-30.273,223.145,-26.855,0,0
1586464777,-44.922,-31.25,151.855,-25.391,0,0
1586464777,-50.781,-34.18,101.074,-34.668,0,0
1586464777,-50.293,-34.668,18.555,-40.039,0,0
1586464778,-53.711,-31.738,143.066,-37.598,0,0
1586464778,-54.199,-33.203,165.527,-34.18,0,0
1586464778,-43.457,-37.598,-1.953,-32.227,0,0
1586464778,-35.156,-37.109,32.227,-37.598,0,0
1586464778,-32.715,-32.227,-24.902,-38.086,0,0
1586464778,-43.945,-32.715,-52.734,-37.109,0,0
1586464778,-49.805,-33.691,186.523,-41.992,0,0
1586464778,-38.086,-33.203,192.871,-41.504,0,0
1586464778,-33.203,-31.25,185.547,-35.156,0,0
1586464778,-32.715,-30.762,126.953,-23.438,0,0
1586464778,-36.133,-27.832,117.676,-21.484,0,0
1586464778,-25.879,-21.973,185.547,-24.414,0,0
1586464778,-16.602,-19.531,124.023,-23.926,0,0
1586464778,-21.973,-20.996,138.184,-17.578,0,0
1586464778,-16.602,-25.879,25.391,-8.301,0,0
1586464778,-23.926,-26.855,-164.062,-18.555,0,0
1586464778,-37.598,-22.949,140.625,-40.527,0,0
1586464778,-39.062,-20.996,183.594,-37.598,0,0
1586464778,-33.691,-20.508,94.238,-22.461,0,0
1586464778,-23.926,-20.996,124.512,-24.414,0,0
1586464778,-25.391,-23.926,178.223,-31.25,0,0
1586464778,-27.832,-24.902,204.102,-25.391,0,0
1586464778,-27.344,-21.484,188.965,-15.137,0,0
1586464778,-13.184,-15.137,199.219,-10.742,0,0
1586464778,2.93,-18.555,198.242,-14.16,0,0
1586464778,-0.977,-22.461,180.664,-13.184,0,0
1586464778,-11.719,-20.02,102.051,1.465,0,0
1586464778,-17.09,-16.602,70.312,0,0,0
1586464778,-12.695,-13.672,110.352,-13.672,0,0
1586464778,-11.23,-13.184,111.816,-13.184,0,0
1586464778,-21.484,-14.16,-177.734,-6.836,0,0
1586464778,-24.902,-10.742,8.301,-5.371,0,0
1586464778,-20.02,-7.324,164.062,-8.789,0,0
1586464778,-11.719,-7.812,149.414,-11.23,0,0
1586464778,-13.184,-10.742,177.246,-6.348,0,0
1586464778,-16.113,-15.137,70.801,-5.371,0,0
1586464778,-12.695,-20.996,151.367,-11.719,0,0
1586464778,-8.789,-20.996,168.457,-17.578,0,0
1586464778,-16.113,-24.414,106.934,-22.949,0,0
1586464778,-15.137,-23.926,96.191,-9.766,0,0
1586464778,-13.184,-21.484,-47.363,-5.371,0,0
1586464778,-22.461,-24.414,0.488,-21.484,0,0
1586464778,-18.066,-22.949,102.051,-22.949,0,0
1586464778,-12.207,-20.996,122.07,1.465,0,0
1586464778,-8.301,-20.02,200.195,6.348,0,0
1586464778,-5.371,-21.484,140.137,-11.23,0,0
1586464778,-16.113,-21.973,166.504,-24.902,0,0
1586464778,-26.367,-20.02,181.641,-24.414,0,0
1586464778,-19.043,-21.973,208.984,-8.789,0,0
1586464778,-6.836,-24.902,215.82,-7.812,0,0
1586464778,-13.672,-24.414,39.062,-24.414,0,0
1586464778,-26.855,-25.391,20.02,-20.508,0,0
1586464778,-31.25,-23.926,142.578,-8.789,0,0
1586464778,-31.25,-23.926,164.551,-15.625,0,0
1586464778,-27.344,-28.32,166.504,-24.414,0,0
1586464778,-33.691,-27.344,91.797,-24.414,0,0
1586464778,-46.387,-26.855,167.969,-27.832,0,0
1586464778,-45.41,-33.691,148.926,-22.949,0,0
1586464778,-39.551,-34.18,22.949,-22.949,0,0
1586464778,-42.48,-29.297,145.02,-29.785,0,0
1586464778,-47.852,-25.879,106.445,-29.297,0,0
1586464778,-48.34,-22.949,-11.23,-28.32,0,0
1586464778,-44.434,-22.949,64.941,-33.203,0,0
1586464778,-44.434,-20.02,76.66,-34.18,0,0
1586464778,-41.504,-17.09,205.078,-12.695,0,0
1586464778,-33.203,-19.531,113.281,2.93,0,0
1586464778,-38.086,-22.949,-210.938,-5.371,0,0
1586464778,-38.086,-22.461,72.266,-23.926,0,0
1586464778,-36.621,-21.484,229.98,-22.461,0,0
1586464778,-40.039,-26.855,204.59,-14.16,0,0
1586464778,-37.109,-30.273,144.043,-15.137,0,0
1586464778,-33.203,-30.762,-83.496,-13.672,0,0
1586464778,-42.48,-27.832,93.262,-23.926,0,0
1586464778,-46.387,-28.32,110.84,-25.391,0,0
1586464778,-27.832,-24.902,75.195,-12.207,0,0
1586464778,-18.066,-23.926,61.523,-17.09,0,0
1586464778,-26.855,-33.203,-145.02,-24.414,0,0
1586464778,-26.367,-29.297,62.5,-15.625,0,0
1586464778,-28.32,-24.902,202.148,-12.207,0,0
1586464778,-32.227,-26.367,182.129,-21.973,0,0
1586464778,-31.738,-27.344,173.828,-28.32,0,0
1586464778,-35.156,-36.133,49.316,-20.996,0,0
1586464778,-28.32,-37.598,128.906,-10.254,0,0
1586464778,-28.32,-32.227,182.617,-18.066,0,0
1586464778,-16.113,-30.273,159.668,-21.484,0,0
1586464778,-14.16,-28.32,174.316,-17.09,0,0
1586464778,-25.879,-24.414,-9.766,-4.883,0,0
1586464778,-32.227,-23.926,26.367,-14.16,0,0
1586464778,-19.043,-23.438,168.945,-34.668,0,0
1586464778,-3.418,-21.973,128.418,-24.414,0,0
1586464778,-16.113,-26.367,94.727,-15.137,0,0
1586464778,-25.391,-35.645,55.664,-17.578,0,0
1586464778,-21.973,-31.738,121.582,-20.508,0,0
1586464778,-22.949,-26.367,194.824,-30.273,0,0
1586464778,-17.09,-25.391,197.266,-22.949,0,0
1586464778,-16.113,-25.879,176.27,-17.578,0,0
1586464778,-18.555,-27.832,78.125,-23.438,0,0
1586464778,-14.16,-28.32,139.16,-29.297,0,0
1586464778,-16.602,-24.902,159.668,-28.809,0,0
1586464778,-23.438,-24.414,78.613,-26.367,0,0
1586464778,-26.367,-26.367,181.152,-30.273,0,0
1586464778,-13.672,-23.926,82.031,-24.414,0,0
1586464778,-13.184,-23.438,-27.832,-12.695,0,0
1586464778,-21.973,-27.344,125.488,-3.906,0,0
1586464778,-23.438,-28.809,122.559,-12.695,0,0
1586464778,-22.461,-26.855,224.609,-28.809,0,0
1586464778,-25.391,-33.691,121.582,-24.414,0,0
1586464778,-25.391,-38.086,-119.141,-16.113,0,0
1586464778,-29.297,-36.621,148.438,-26.367,0,0
1586464778,-29.297,-35.645,199.219,-33.691,0,0
1586464778,-35.156,-32.715,89.355,-32.715,0,0
1586464778,-44.922,-28.32,82.52,-30.762,0,0
1586464778,-49.316,-32.227,-166.992,-26.367,0,0
1586464778,-52.734,-36.133,-32.715,-35.645,0,0
1586464778,-48.34,-36.621,141.113,-49.805,0,0
1586464778,-50.781,-34.668,199.219,-47.852,0,0
1586464778,-53.711,-33.691,193.359,-45.41,0,0
1586464778,-38.086,-37.598,97.656,-41.992,0,0
1586464778,-25.879,-37.109,163.086,-38.574,0,0
1586464778,-37.109,-36.621,168.457,-41.992,0,0
1586464778,-49.805,-33.691,223.145,-39.551,0,0
1586464778,-41.992,-32.715,173.828,-38.086,0,0
1586464778,-24.902,-38.574,-17.09,-33.203,0,0
1586464778,-24.902,-42.48,52.246,-31.738,0,0
1586464778,-36.621,-41.016,188.477,-35.645,0,0
1586464778,-37.109,-34.18,191.406,-34.668,0,0
1586464778,-27.832,-31.738,190.918,-39.062,0,0
1586464778,-18.555,-35.156,-10.742,-36.133,0,0
1586464778,-22.949,-31.25,14.648,-35.156,0,0
1586464778,-35.645,-29.297,208.008,-36.621,0,0
1586464778,-30.273,-31.738,194.336,-37.598,0,0
1586464778,-22.949,-31.738,155.273,-38.574,0,0
1586464778,-25.391,-31.738,105.957,-30.762,0,0
1586464778,-23.926,-30.762,139.16,-22.461,0,0
1586464778,-22.949,-32.227,93.262,-28.809,0,0
1586464778,-19.531,-32.227,38.086,-32.715,0,0
1586464778,-26.367,-28.809,167.48,-35.156,0,0
1586464778,-29.297,-28.809,2.441,-24.414,0,0
1586464778,-18.555,-27.344,-150.879,-12.207,0,0
1586464778,-25.391,-32.715,150.879,-36.133,0,0
1586464778,-30.273,-34.668,185.547,-42.969,0,0
1586464778,-18.066,-28.809,195.801,-21.484,0,0
1586464778,-7.324,-38.574,154.297,-9.277,0,0
1586464778,-10.254,-41.016,95.215,-20.02,0,0
1586464778,-18.555,-37.109,155.273,-37.598,0,0
1586464778,-23.438,-36.621,144.531,-36.621,0,0
1586464778,-18.066,-31.738,108.887,-22.461,0,0
1586464778,-12.695,-30.273,8.789,-16.602,0,0
1586464778,-9.766,-32.715,-268.555,-19.531,0,0
1586464778,-20.508,-32.227,-27.344,-18.555,0,0
1586464778,-35.645,-36.133,213.867,-22.949,0,0
1586464778,-32.715,-39.551,172.852,-28.809,0,0
1586464778,-20.508,-34.668,147.461,-25.879,0,0
1586464778,-19.531,-38.086,128.418,-23.926,0,0
1586464778,-26.367,-36.621,195.801,-23.438,0,0
1586464778,-20.508,-31.738,170.41,-28.32,0,0
1586464778,-17.578,-34.668,166.992,-35.156,0,0
1586464778,-21.484,-34.18,150.391,-28.809,0,0
1586464778,-28.32,-36.621,-64.941,-20.02,0,0
1586464778,-24.902,-35.645,25.391,-16.113,0,0
1586464778,-19.043,-30.762,173.34,-22.461,0,0
1586464778,-36.621,-33.203,157.715,-45.898,0,0
1586464778,-47.363,-39.062,75.195,-49.316,0,0
1586464778,-35.156,-36.621,-177.734,-27.344,0,0
1586464778,-29.297,-33.203,25.879,-28.809,0,0
1586464778,-29.785,-32.715,225.098,-36.133,0,0
1586464778,-26.855,-32.227,196.777,-30.273,0,0
1586464778,-30.762,-30.273,170.41,-22.949,0,0
1586464778,-39.551,-33.203,25.391,-24.902,0,0
1586464778,-37.598,-36.133,138.184,-37.598,0,0
1586464778,-32.227,-36.621,118.164,-39.062,0,0
1586464778,-35.156,-41.992,65.43,-21.973,0,0
1586464778,-29.297,-43.945,179.688,-21.484,0,0
1586464778,-23.926,-41.016,-32.227,-39.551,0,0
1586464778,-29.297,-41.016,-64.941,-42.969,0,0
1586464778,-25.879,-37.109,181.152,-27.832,0,0
1586464778,-24.902,-34.668,178.223,-22.461,0,0
1586464778,-24.414,-33.691,162.598,-32.715,0,0
1586464778,-17.578,-34.668,34.18,-39.551,0,0
1586464778,-16.602,-35.156,35.645,-20.996,0,0
1586464778,-27.832,-37.598,169.922,-14.16,0,0
1586464778,-28.809,-36.133,141.602,-28.32,0,0
1586464778,-21.484,-36.133,72.754,-36.133,0,0
1586464778,-25.391,-35.156,-66.406,-26.855,0,0
1586464778,-26.855,-27.832,-135.742,-12.207,0,0
1586464778,-29.785,-30.762,106.445,-27.344,0,0
1586464778,-30.762,-32.227,116.699,-45.41,0,0
1586464778,-35.156,-28.809,112.793,-41.992,0,0
1586464778,-38.574,-29.785,119.629,-27.832,0,0
1586464778,-35.645,-28.809,135.742,-30.273,0,0
1586464778,-30.273,-27.344,151.855,-40.527,0,0
1586464778,-34.668,-28.32,144.531,-45.898,0,0
1586464778,-44.434,-26.367,177.734,-42.48,0,0
1586464778,-41.992,-22.461,127.441,-41.016,0,0
1586464778,-35.156,-21.973,10.254,-47.852,0,0
1586464778,-35.156,-23.926,54.688,-48.828,0,0
1586464778,-37.109,-26.855,112.793,-37.109,0,0
1586464778,-35.645,-24.414,156.25,-21.484,0,0
1586464778,-36.621,-26.367,106.934,-24.414,0,0
1586464778,-39.062,-33.203,16.113,-36.133,0,0
1586464778,-38.574,-32.715,154.297,-32.227,0,0
1586464778,-35.645,-29.297,207.031,-22.461,0,0
1586464778,-42.48,-35.645,187.012,-26.367,0,0
1586464778,-41.992,-36.133,141.602,-35.645,0,0
1586464778,-39.062,-33.203,-229.98,-28.32,0,0
1586464778,-50.781,-30.762,-156.25,-25.879,0,0
1586464778,-56.152,-29.785,66.406,-28.32,0,0
1586464778,-41.504,-31.738,61.035,-19.531,0,0
1586464778,-32.227,-27.832,174.805,-21.973,0,0
1586464778,-48.828,-25.391,-97.168,-26.367,0,0
1586464778,-57.617,-25.879,-172.852,-30.273,0,0
1586464778,-44.434,-23.438,130.371,-27.344,0,0
1586464778,-24.414,-28.32,206.543,-17.09,0,0
1586464778,-26.367,-30.273,167.48,-18.066,0,0
1586464778,-39.551,-25.391,93.262,-21.973,0,0
1586464778,-37.598,-26.367,149.414,-30.273,0,0
1586464778,-31.25,-28.32,203.125,-36.621,0,0
1586464778,-36.621,-28.32,157.227,-29.297,0,0
1586464778,-39.551,-30.273,117.188,-23.926,0,0
1586464778,-38.086,-30.762,-10.742,-30.273,0,0
1586464778,-32.715,-28.32,-52.246,-32.715,0,0
1586464778,-38.086,-27.344,158.203,-36.621,0,0
1586464778,-46.875,-23.926,172.363,-30.273,0,0
1586464778,-44.434,-24.902,182.129,-26.367,0,0
1586464778,-39.551,-29.297,105.957,-38.574,0,0
1586464778,-38.086,-27.832,123.535,-47.363,0,0
1586464778,-46.875,-25.391,217.285,-31.738,0,0
1586464778,-48.34,-28.809,179.199,-19.531,0,0
1586464778,-41.992,-27.832,152.344,-30.762,0,0
1586464778,-36.621,-25.879,98.145,-29.785,0,0
1586464778,-40.527,-32.227,30.273,-23.438,0,0
1586464778,-55.664,-34.668,67.871,-34.18,0,0
1586464778,-50.293,-31.25,153.32,-28.809,0,0
1586464778,-36.621,-27.344,147.949,-31.738,0,0
1586464778,-33.691,-30.273,6.348,-34.668,0,0
1586464778,-37.598,-31.25,-22.461,-15.137,0,0
1586464778,-31.25,-29.297,155.273,-10.254,0,0
1586464778,-31.738,-29.785,159.18,-33.691,0,0
1586464778,-41.992,-27.344,154.785,-40.527,0,0
1586464778,-34.668,-24.414,62.988,-22.949,0,0
1586464778,-35.645,-29.297,-259.277,-14.648,0,0
1586464778,-37.109,-30.762,0.488,-29.785,0,0
1586464778,-29.785,-32.715,78.125,-39.062,0,0
1586464778,-37.109,-32.715,69.336,-32.227,0,0
1586464778,-41.016,-33.691,167.48,-27.832,0,0
1586464778,-40.527,-41.016,-160.645,-27.344,0,0
1586464778,-44.434,-35.645,42.48,-36.133,0,0
1586464778,-48.34,-31.738,233.398,-39.062,0,0
1586464778,-47.363,-32.715,164.551,-31.25,0,0
1586464778,-55.664,-31.25,157.715,-31.25,0,0
1586464778,-51.27,-33.203,97.168,-38.574,0,0
1586464778,-49.805,-34.18,158.203,-42.48,0,0
1586464778,-58.105,-33.203,208.984,-34.18,0,0
1586464778,-56.152,-34.668,145.508,-29.785,0,0
1586464778,-43.457,-36.133,42.48,-34.18,0,0
1586464778,-42.48,-38.086,-129.395,-40.527,0,0
1586464779,-48.828,-40.039,-146.484,-30.762,0,0
1586464779,-48.34,-40.039,90.82,-22.949,0,0
1586464779,-43.457,-34.668,94.727,-34.18,0,0
1586464779,-41.992,-32.715,103.516,-47.363,0,0
1586464779,-50.293,-35.645,28.809,-45.898,0,0
1586464779,-42.969,-35.645,112.793,-27.832,0,0
1586464779,-40.039,-33.203,164.062,-27.832,0,0
1586464779,-40.527,-27.832,105.469,-41.016,0,0
1586464779,-32.715,-28.809,130.859,-33.691,0,0
1586464779,-34.668,-34.668,79.59,-21.484,0,0
1586464779,-38.086,-41.992,33.203,-29.297,0,0
1586464779,-37.598,-42.48,97.168,-46.875,0,0
1586464779,-32.227,-35.645,101.562,-38.574,0,0
1586464779,-31.25,-31.738,143.066,-22.461,0,0
1586464779,-36.621,-37.109,26.367,-28.809,0,0
1586464779,-36.133,-39.062,-203.125,-33.691,0,0
1586464779,-37.109,-32.227,53.711,-36.621,0,0
1586464779,-32.227,-23.926,208.984,-27.344,0,0
1586464779,-29.297,-22.949,144.531,-17.578,0,0
1586464779,-31.738,-23.926,123.535,-25.391,0,0
1586464779,-36.621,-21.484,139.648,-40.527,0,0
1586464779,-46.875,-24.902,136.23,-44.922,0,0
1586464779,-47.852,-31.25,31.25,-31.25,0,0
1586464779,-35.156,-33.203,44.434,-19.531,0,0
1586464779,-30.273,-28.32,123.535,-29.297,0,0
1586464779,-39.551,-30.273,-210.449,-33.691,0,0
1586464779,-59.082,-31.25,-56.152,-39.062,0,0
1586464779,-54.688,-25.879,217.773,-38.086,0,0
1586464779,-34.18,-23.438,140.137,-30.273,0,0
1586464779,-28.809,-28.32,70.312,-27.344,0,0
1586464779,-40.039,-27.832,60.059,-32.227,0,0
1586464779,-44.434,-29.785,163.574,-34.18,0,0
1586464779,-41.016,-35.156,172.852,-29.785,0,0
1586464779,-29.785,-36.133,147.949,-34.18,0,0
1586464779,-25.391,-34.18,33.691,-26.367,0,0
1586464779,-31.25,-34.668,-197.754,-27.832,0,0
1586464779,-36.621,-34.18,11.23,-37.109,0,0
1586464779,-29.785,-33.203,185.547,-31.25,0,0
1586464779,-24.902,-32.715,122.07,-27.832,0,0
1586464779,-39.551,-31.25,134.766,-36.621,0,0
1586464779,-32.227,-34.18,-4.395,-33.691,0,0
1586464779,-19.043,-33.203,91.309,-34.668,0,0
1586464779,-26.367,-32.227,177.246,-33.691,0,0
1586464779,-32.227,-34.668,112.793,-28.32,0,0
1586464779,-35.156,-36.133,21.973,-28.809,0,0
1586464779,-35.156,-36.621,-99.121,-33.203,0,0
1586464779,-35.156,-33.691,-72.266,-33.691,0,0
1586464779,-38.574,-27.832,81.055,-21.973,0,0
1586464779,-40.527,-26.855,133.789,-7.324,0,0
1586464779,-39.551,-33.203,148.438,-12.207,0,0
1586464779,-42.969,-38.086,-32.715,-29.785,0,0
1586464779,-42.48,-31.25,-120.605,-22.949,0,0
1586464779,-45.898,-30.762,111.816,-20.02,0,0
1586464779,-42.48,-34.668,153.32,-27.832,0,0
1586464779,-25.879,-28.809,152.344,-30.273,0,0
1586464779,-25.879,-27.344,105.957,-29.785,0,0
1586464779,-35.156,-31.25,110.84,-28.809,0,0
1586464779,-30.762,-28.32,115.234,-33.203,0,0
1586464779,-27.832,-27.832,-32.227,-40.527,0,0
1586464779,-30.762,-32.227,-3.906,-32.227,0,0
1586464779,-34.18,-34.18,4.395,-23.926,0,0
1586464779,-30.762,-34.668,-242.676,-22.949,0,0
1586464779,-24.902,-31.738,30.762,-28.32,0,0
1586464779,-21.484,-28.809,184.082,-28.32,0,0
1586464779,-20.508,-30.273,128.906,-14.648,0,0
1586464779,-26.855,-34.668,130.859,-18.555,0,0
1586464779,-24.414,-28.809,106.934,-31.25,0,0
1586464779,-17.578,-23.926,134.277,-34.668,0,0
1586464779,-20.508,-28.32,137.695,-27.832,0,0
1586464779,-23.926,-29.297,181.641,-14.16,0,0
1586464779,-20.996,-30.762,38.086,-18.066,0,0
1586464779,-16.113,-26.367,-88.867,-34.18,0,0
1586464779,-21.484,-24.902,123.535,-37.598,0,0
1586464779,-39.062,-32.227,129.883,-33.203,0,0
1586464779,-34.18,-35.645,52.734,-28.809,0,0
1586464779,-25.879,-31.738,27.344,-39.551,0,0
1586464779,-26.367,-28.32,-195.312,-47.852,0,0
1586464779,-30.762,-29.785,27.344,-43.457,0,0
1586464779,-27.344,-32.715,183.594,-41.016,0,0
1586464779,-18.066,-31.25,139.648,-44.922,0,0
1586464779,-18.066,-29.785,145.996,-46.875,0,0
1586464779,-23.926,-31.738,-1.465,-32.715,0,0
1586464779,-23.926,-28.32,39.062,-12.695,0,0
1586464779,-17.578,-23.438,103.516,-20.508,0,0
1586464779,-15.137,-25.879,160.156,-34.668,0,0
1586464779,-20.508,-28.32,206.543,-30.273,0,0
1586464779,-21.484,-35.156,9.277,-17.578,0,0
1586464779,-24.414,-34.668,-76.172,-14.648,0,0
1586464779,-23.438,-28.809,134.766,-26.855,0,0
1586464779,-18.555,-26.855,130.371,-22.461,0,0
1586464779,-27.344,-30.273,93.262,-13.672,0,0
1586464779,-26.367,-32.227,66.406,-17.578,0,0
1586464779,-21.484,-30.273,150.879,-26.367,0,0
1586464779,-27.344,-29.785,181.641,-32.715,0,0
1586464779,-30.273,-29.785,82.52,-24.414,0,0
1586464779,-26.855,-31.25,70.801,-21.484,0,0
1586464779,-17.578,-33.691,19.043,-20.02,0,0
1586464779,-17.578,-34.18,-220.703,-15.137,0,0
1586464779,-35.156,-29.785,-4.395,-20.02,0,0
1586464779,-49.805,-31.25,183.105,-26.367,0,0
1586464779,-49.316,-32.715,169.434,-31.738,0,0
1586464779,-43.457,-32.227,141.602,-38.574,0,0
1586464779,-36.621,-31.25,119.141,-38.574,0,0
1586464779,-41.016,-32.227,187.5,-36.133,0,0
1586464779,-39.551,-35.156,141.113,-28.809,0,0
1586464779,-29.785,-31.738,120.605,-30.273,0,0
1586464779,-35.156,-26.855,7.812,-32.227,0,0
1586464779,-33.203,-29.785,-291.992,-24.902,0,0
1586464779,-32.227,-28.32,17.578,-27.344,0,0
1586464779,-37.109,-29.297,195.312,-36.621,0,0
1586464779,-31.738,-31.738,180.176,-39.062,0,0
1586464779,-31.25,-27.832,173.34,-25.879,0,0
1586464779,-29.785,-28.809,106.934,-10.742,0,0
1586464779,-24.414,-33.691,152.832,-16.113,0,0
1586464779,-22.949,-34.18,129.395,-20.508,0,0
1586464779,-19.043,-32.715,130.371,-19.043,0,0
1586464779,-25.391,-34.18,111.816,-24.414,0,0
1586464779,-26.367,-34.668,17.09,-25.879,0,0
1586464779,-23.926,-36.621,14.16,-29.297,0,0
1586464779,-37.109,-38.086,0.488,-29.297,0,0
1586464779,-42.969,-34.668,72.754,-19.531,0,0
1586464779,-38.086,-39.062,142.578,-16.113,0,0
1586464779,-35.156,-41.992,-122.559,-27.344,0,0
1586464779,-40.527,-38.086,-62.5,-40.527,0,0
1586464779,-41.504,-38.086,132.324,-26.367,0,0
1586464779,-35.645,-34.668,141.602,-11.719,0,0
1586464779,-37.109,-34.668,148.438,-21.973,0,0
1586464779,-38.574,-42.48,28.809,-24.902,0,0
1586464779,-44.922,-39.062,85.449,-21.484,0,0
1586464779,-52.246,-30.762,119.629,-27.832,0,0
1586464779,-43.945,-30.273,45.898,-32.227,0,0
1586464779,-43.945,-33.691,98.145,-40.039,0,0
1586464779,-44.434,-37.598,-18.066,-28.32,0,0
1586464779,-41.992,-37.598,-67.871,-8.301,0,0
1586464779,-32.715,-34.668,124.023,-8.789,0,0
1586464779,-30.273,-35.645,77.637,-22.949,0,0
1586464779,-41.504,-31.25,124.023,-30.762,0,0
1586464779,-48.34,-31.738,76.172,-24.414,0,0
1586464779,-45.41,-33.691,72.754,-20.02,0,0
1586464779,-37.109,-32.715,136.719,-22.461,0,0
1586464779,-39.551,-33.691,107.422,-26.855,0,0
1586464779,-41.992,-29.297,160.156,-17.09,0,0
1586464779,-39.062,-29.297,32.715,-15.625,0,0
1586464779,-36.621,-33.203,-252.93,-20.508,0,0
1586464779,-32.227,-29.785,14.648,-15.137,0,0
1586464779,-44.434,-31.738,125,-12.695,0,0
1586464779,-52.734,-31.25,22.949,-10.742,0,0
1586464779,-47.852,-27.832,116.699,-18.066,0,0
1586464779,-43.945,-32.227,134.277,-37.598,0,0
1586464779,-40.527,-27.344,85.449,-34.18,0,0
1586464779,-41.016,-24.902,49.316,-23.438,0,0
1586464779,-39.551,-28.32,137.695,-21.484,0,0
1586464779,-37.109,-28.809,150.391,-22.949,0,0
1586464779,-36.133,-27.344,112.305,-24.902,0,0
1586464779,-34.668,-29.297,82.031,-15.137,0,0
1586464779,-31.25,-29.297,46.875,-15.137,0,0
1586464779,-28.809,-26.855,175.293,-21.484,0,0
1586464779,-24.414,-28.809,141.113,-25.879,0,0
1586464779,-35.156,-29.297,-219.238,-17.578,0,0
1586464779,-55.664,-30.273,-20.996,-20.508,0,0
1586464779,-49.316,-31.738,200.684,-33.691,0,0
1586464779,-36.133,-28.809,153.32,-27.832,0,0
1586464779,-41.504,-30.762,127.93,-25.879,0,0
1586464779,-49.316,-31.25,49.805,-24.902,0,0
1586464779,-44.922,-28.809,116.211,-25.879,0,0
1586464779,-44.922,-33.691,86.914,-27.832,0,0
1586464779,-51.758,-37.109,0.488,-30.762,0,0
1586464779,-56.152,-30.762,48.34,-39.062,0,0
1586464779,-46.387,-30.273,-69.824,-41.992,0,0
1586464779,-33.203,-31.738,-114.258,-40.527,0,0
1586464779,-36.133,-32.715,97.168,-39.551,0,0
1586464779,-49.805,-28.809,182.129,-43.945,0,0
1586464779,-36.621,-26.367,173.34,-31.738,0,0
1586464779,-17.09,-29.785,94.238,-15.137,0,0
1586464779,-26.367,-30.762,134.766,-32.227,0,0
1586464779,-35.156,-29.297,178.711,-36.621,0,0
1586464779,-37.109,-32.227,165.039,-27.344,0,0
1586464779,-36.621,-33.691,187.012,-31.738,0,0
1586464779,-33.691,-37.598,-4.883,-26.367,0,0
1586464779,-38.574,-39.062,-113.77,-19.531,0,0
1586464779,-44.922,-36.133,69.336,-20.02,0,0
1586464779,-39.551,-37.109,139.16,-15.625,0,0
1586464779,-40.039,-32.715,140.625,-25.391,0,0
1586464779,-53.711,-31.738,28.809,-37.109,0,0
1586464779,-54.199,-30.762,-16.602,-22.461,0,0
1586464779,-54.688,-28.809,124.512,-19.043,0,0
1586464779,-58.105,-29.297,149.902,-36.621,0,0
1586464779,-42.969,-29.297,144.531,-34.668,0,0
1586464779,-35.645,-26.855,128.418,-9.766,0,0
1586464779,-43.457,-24.414,112.305,-16.602,0,0
1586464779,-43.945,-23.438,63.965,-39.062,0,0
1586464779,-44.922,-24.414,20.508,-44.434,0,0
1586464779,-50.293,-26.367,179.199,-35.645,0,0
1586464779,-48.828,-28.32,177.246,-15.625,0,0
1586464779,-41.016,-37.109,-242.188,-17.09,0,0
1586464779,-34.18,-35.645,-37.598,-35.156,0,0
1586464779,-41.992,-28.809,203.125,-34.18,0,0
1586464779,-46.387,-31.738,160.645,-32.227,0,0
1586464779,-42.48,-33.203,128.906,-32.715,0,0
1586464779,-36.133,-33.203,52.734,-29.785,0,0
1586464779,-36.621,-33.203,144.043,-32.227,0,0
1586464779,-48.828,-28.32,160.645,-32.715,0,0
1586464779,-41.504,-28.809,67.383,-31.25,0,0
1586464779,-34.18,-30.273,17.09,-36.621,0,0
1586464779,-41.016,-24.902,-217.773,-34.18,0,0
1586464779,-46.875,-21.973,-71.289,-22.949,0,0
1586464779,-43.457,-24.414,175.293,-21.973,0,0
1586464779,-35.645,-27.832,138.672,-33.691,0,0
1586464779,-34.668,-26.855,149.902,-37.598,0,0
1586464779,-36.621,-27.344,61.035,-22.461,0,0
1586464779,-36.133,-32.715,101.562,-20.508,0,0
1586464779,-39.551,-34.18,78.613,-34.18,0,0
1586464779,-33.691,-26.855,125,-35.156,0,0
1586464779,-30.273,-23.926,175.781,-29.297,0,0
1586464779,-33.691,-28.32,-6.348,-22.949,0,0
1586464779,-31.25,-24.902,-59.082,-27.832,0,0
1586464779,-23.438,-23.438,146.484,-33.203,0,0
1586464779,-24.902,-29.297,110.352,-31.25,0,0
1586464779,-40.039,-29.785,51.758,-32.715,0,0
1586464779,-42.48,-31.25,64.453,-38.574,0,0
1586464779,-32.715,-33.691,68.359,-44.922,0,0
1586464779,-28.809,-32.227,149.902,-41.016,0,0
1586464779,-31.738,-33.203,185.547,-28.32,0,0
1586464779,-29.297,-35.156,162.598,-20.996,0,0
1586464779,-14.16,-29.297,118.164,-15.625,0,0
1586464779,-13.672,-29.297,131.348,-19.043,0,0
1586464779,-21.484,-30.273,85.938,-17.578,0,0
1586464779,-19.531,-32.227,39.062,-4.395,0,0
1586464779,-12.695,-30.762,133.789,-14.648,0,0
1586464779,-21.973,-30.762,87.891,-39.551,0,0
1586464779,-33.691,-35.645,-67.871,-33.203,0,0
1586464779,-24.902,-34.18,128.906,-14.16,0,0
1586464779,-19.531,-39.062,204.59,-15.625,0,0
1586464779,-22.949,-36.621,158.691,-33.203,0,0
1586464779,-17.578,-35.645,84.473,-25.391,0,0
1586464779,-19.531,-40.527,-262.207,-9.766,0,0
1586464779,-24.414,-34.18,8.789,-15.625,0,0
1586464779,-17.09,-33.203,160.645,-25.879,0,0
1586464779,-21.484,-31.738,45.41,-43.945,0,0
1586464779,-34.18,-34.18,57.129,-41.504,0,0
1586464779,-39.062,-39.062,-208.496,-21.973,0,0
1586464779,-36.621,-37.109,-23.926,-33.691,0,0
1586464779,-37.109,-32.227,148.438,-41.992,0,0
1586464779,-41.016,-28.32,174.805,-22.461,0,0
1586464779,-30.762,-33.691,171.387,-8.789,0,0
1586464779,-22.949,-29.785,32.227,-16.602,0,0
1586464779,-41.992,-25.391,162.109,-41.504,0,0
1586464779,-53.711,-33.691,208.008,-40.039,0,0
1586464779,-36.133,-31.25,167.48,-13.184,0,0
1586464779,-31.25,-25.391,154.297,-11.23,0,0
1586464779,-28.32,-29.785,-107.91,-20.02,0,0
1586464779,-21.973,-27.832,-19.531,-23.438,0,0
1586464779,-30.762,-27.344,168.945,-22.949,0,0
1586464779,-34.668,-26.855,110.84,-24.902,0,0
1586464779,-29.297,-23.926,157.227,-30.273,0,0
1586464779,-23.438,-29.297,-74.707,-22.949,0,0
1586464780,-30.762,-25.879,-94.727,-17.09,0,0
1586464780,-36.621,-20.508,189.453,-18.555,0,0
1586464780,-20.508,-24.902,181.641,-16.113,0,0
1586464780,-19.043,-26.855,149.414,-16.113,0,0
1586464780,-38.574,-30.762,113.77,-26.367,0,0
1586464780,-44.922,-30.762,179.199,-31.25,0,0
1586464780,-38.086,-32.227,140.625,-34.18,0,0
1586464780,-30.762,-34.668,95.703,-34.668,0,0
1586464780,-25.879,-28.809,205.078,-27.344,0,0
1586464780,-30.762,-26.855,55.176,-13.184,0,0
1586464780,-35.645,-30.762,-69.336,-11.23,0,0
1586464780,-30.762,-27.344,142.09,-17.09,0,0
1586464780,-43.457,-30.273,141.113,-24.902,0,0
1586464780,-49.805,-31.738,163.574,-20.508,0,0
1586464780,-33.691,-26.367,141.602,-11.23,0,0
1586464780,-32.227,-29.785,75.684,-24.902,0,0
1586464780,-41.016,-30.762,169.922,-38.574,0,0
1586464780,-41.016,-28.32,168.945,-36.133,0,0
1586464780,-37.598,-26.367,100.098,-27.832,0,0
1586464780,-39.062,-28.809,-17.578,-34.668,0,0
1586464780,-39.551,-37.109,-38.574,-45.898,0,0
1586464780,-31.25,-41.016,140.625,-28.809,0,0
1586464780,-32.715,-36.621,117.676,-14.648,0,0
1586464780,-48.828,-33.691,128.906,-34.668,0,0
1586464780,-50.781,-36.621,145.508,-47.363,0,0
1586464780,-34.668,-39.062,-286.133,-23.438,0,0
1586464780,-32.227,-40.039,-177.734,-12.695,0,0
1586464780,-44.434,-35.156,166.992,-30.762,0,0
1586464780,-41.504,-30.273,124.512,-39.551,0,0
1586464780,-40.527,-39.062,52.734,-35.645,0,0
1586464780,-43.457,-44.434,-63.965,-23.438,0,0
1586464780,-47.363,-39.551,0.488,-29.785,0,0
1586464780,-44.922,-38.086,107.91,-42.48,0,0
1586464780,-42.969,-39.551,167.969,-48.828,0,0
1586464780,-41.992,-37.109,65.43,-39.062,0,0
1586464780,-40.039,-33.691,-180.176,-33.691,0,0
1586464780,-36.133,-30.762,23.438,-49.805,0,0
1586464780,-32.227,-31.25,219.238,-54.688,0,0
1586464780,-39.551,-33.691,173.34,-46.387,0,0
1586464780,-41.504,-38.086,132.324,-41.504,0,0
1586464780,-42.969,-44.922,46.875,-44.922,0,0
1586464780,-43.945,-39.551,140.137,-49.805,0,0
1586464780,-42.48,-38.574,86.426,-43.457,0,0
1586464780,-51.758,-42.969,36.133,-41.016,0,0
1586464780,-48.34,-39.062,181.152,-34.668,0,0
1586464780,-34.18,-34.668,9.766,-28.809,0,0
1586464780,-39.062,-34.18,-73.73,-38.574,0,0
1586464780,-54.199,-35.645,157.715,-43.457,0,0
1586464780,-59.082,-35.645,197.754,-42.48,0,0
1586464780,-43.457,-32.227,172.363,-38.086,0,0
1586464780,-36.621,-31.25,78.613,-35.645,0,0
1586464780,-52.734,-30.273,108.887,-41.016,0,0
1586464780,-47.363,-29.297,170.898,-37.598,0,0
1586464780,-25.391,-19.531,114.746,-24.902,0,0
1586464780,-21.973,-21.973,114.746,-30.273,0,0
1586464780,-31.25,-28.32,29.785,-33.691,0,0
1586464780,-39.062,-21.973,-160.156,-32.715,0,0
1586464780,-40.039,-17.578,40.039,-43.457,0,0
1586464780,-26.855,-21.484,131.348,-39.062,0,0
1586464780,-21.973,-23.438,148.926,-22.949,0,0
1586464780,-32.227,-24.414,113.281,-20.508,0,0
1586464780,-33.203,-20.508,134.277,-30.762,0,0
1586464780,-24.902,-17.09,207.031,-27.832,0,0
1586464780,-29.297,-17.578,158.203,-25.879,0,0
1586464780,-34.668,-20.508,177.734,-30.762,0,0
1586464780,-26.367,-20.996,165.527,-23.926,0,0
1586464780,-20.02,-20.996,35.156,-24.414,0,0
1586464780,-12.695,-24.902,77.637,-26.855,0,0
1586464780,-15.625,-27.832,163.574,-22.949,0,0
1586464780,-21.973,-24.902,203.613,-22.949,0,0
1586464780,-3.906,-25.879,132.324,-22.461,0,0
1586464780,10.254,-32.715,-210.938,-18.555,0,0
1586464780,3.418,-29.297,25.391,-9.277,0,0
1586464780,-7.812,-31.738,208.008,-2.441,0,0
1586464780,-9.277,-34.668,139.16,-10.742,0,0
1586464780,-0.488,-29.297,79.59,-25.391,0,0
1586464780,0,-26.367,-24.414,-28.32,0,0
1586464780,-2.93,-23.438,95.703,-20.508,0,0
1586464780,-4.395,-26.855,49.805,-12.207,0,0
1586464780,1.465,-30.762,21.973,-6.836,0,0
1586464780,-1.465,-30.762,145.508,-15.625,0,0
1586464780,-21.973,-32.715,-112.793,-14.16,0,0
1586464780,-33.691,-33.203,-163.574,-21.973,0,0
1586464780,-26.855,-27.832,176.758,-34.668,0,0
1586464780,-21.973,-29.297,206.543,-27.832,0,0
1586464780,-15.137,-34.18,169.434,-13.184,0,0
1586464780,-16.602,-34.668,89.355,-6.348,0,0
1586464780,-22.461,-36.133,116.699,-17.09,0,0
1586464780,-22.461,-36.133,185.059,-34.18,0,0
1586464780,-23.926,-36.621,164.062,-40.039,0,0
1586464780,-25.391,-41.016,116.699,-33.203,0,0
1586464780,-27.832,-43.457,-29.297,-31.25,0,0
1586464780,-23.438,-43.457,-71.777,-29.785,0,0
1586464780,-22.949,-41.016,166.992,-30.273,0,0
1586464780,-28.809,-35.156,200.684,-27.832,0,0
1586464780,-23.926,-33.691,162.598,-19.531,0,0
1586464780,-21.973,-38.574,128.906,-30.273,0,0
1586464780,-29.785,-36.133,153.32,-35.645,0,0
1586464780,-37.598,-29.297,197.754,-31.25,0,0
1586464780,-45.898,-27.832,187.988,-38.086,0,0
1586464780,-38.086,-28.32,208.984,-31.738,0,0
1586464780,-30.273,-29.785,166.504,-27.832,0,0
1586464780,-32.715,-34.668,67.871,-36.133,0,0
1586464780,-45.898,-33.691,116.699,-40.527,0,0
1586464780,-54.199,-31.738,159.18,-41.504,0,0
1586464780,-45.41,-35.156,164.551,-42.48,0,0
1586464780,-47.363,-35.645,45.898,-44.434,0,0
1586464780,-61.035,-35.645,-217.773,-46.387,0,0
1586464780,-56.641,-32.715,49.805,-48.828,0,0
1586464780,-38.574,-27.832,196.289,-46.875,0,0
1586464780,-36.133,-30.273,145.508,-28.809,0,0
1586464780,-47.363,-31.738,187.988,-28.32,0,0
1586464780,-48.828,-25.879,150.879,-39.062,0,0
1586464780,-26.855,-23.926,200.684,-34.18,0,0
1586464780,-11.719,-29.297,123.535,-29.297,0,0
1586464780,-32.227,-37.109,133.789,-29.785,0,0
1586464780,-35.156,-36.133,185.059,-22.461,0,0
1586464780,-18.555,-35.645,-62.988,-19.043,0,0
1586464780,-20.508,-34.668,118.164,-29.785,0,0
1586464780,-31.738,-32.227,264.16,-33.203,0,0
1586464780,-37.109,-35.645,134.277,-25.879,0,0
1586464780,-27.832,-35.156,95.703,-11.23,0,0
1586464780,-22.461,-27.832,58.105,-20.508,0,0
1586464780,-32.227,-25.391,198.242,-31.738,0,0
1586464780,-37.109,-29.297,256.348,-28.809,0,0
1586464780,-30.273,-29.297,201.172,-27.832,0,0
1586464780,-30.762,-32.227,163.574,-28.32,0,0
1586464780,-35.156,-34.668,53.223,-26.855,0,0
1586464780,-41.016,-28.809,94.727,-26.855,0,0
1586464780,-34.668,-26.367,182.129,-36.133,0,0
1586464780,-25.879,-28.32,136.23,-37.109,0,0
1586464780,-22.949,-28.809,188.477,-32.227,0,0
1586464780,-28.809,-32.227,151.855,-28.809,0,0
1586464780,-37.109,-31.738,195.801,-39.551,0,0
1586464780,-30.273,-29.785,236.328,-41.504,0,0
1586464780,-11.719,-31.738,164.062,-28.32,0,0
1586464780,-20.996,-28.809,153.809,-21.973,0,0
1586464780,-34.18,-26.367,132.324,-17.09,0,0
1586464780,-18.066,-27.344,100.098,-13.184,0,0
1586464780,-12.695,-32.715,155.762,-21.973,0,0
1586464780,-24.414,-32.715,188.477,-30.762,0,0
1586464780,-25.391,-28.32,213.867,-19.043,0,0
1586464780,-27.832,-31.25,163.086,-18.555,0,0
1586464780,-28.32,-36.621,142.578,-28.32,0,0
1586464780,-20.996,-31.25,229.98,-22.949,0,0
1586464780,-32.227,-26.855,191.895,-26.367,0,0
1586464780,-41.504,-30.762,228.516,-31.738,0,0
1586464780,-33.203,-32.715,184.082,-27.832,0,0
1586464780,-22.949,-32.227,-37.598,-26.855,0,0
1586464780,-28.809,-29.297,128.418,-28.32,0,0
1586464780,-40.527,-31.738,153.809,-29.785,0,0
1586464780,-30.762,-30.762,132.324,-31.738,0,0
1586464780,-14.16,-29.297,120.605,-26.855,0,0
1586464780,-20.996,-31.25,-144.043,-21.973,0,0
1586464780,-39.551,-28.809,30.273,-22.461,0,0
1586464780,-45.41,-27.832,237.793,-24.902,0,0
1586464780,-34.18,-27.344,216.309,-27.832,0,0
1586464780,-47.363,-32.715,177.246,-34.668,0,0
1586464780,-55.176,-36.621,98.145,-22.949,0,0
1586464780,-43.457,-29.297,215.82,-8.789,0,0
1586464780,-44.434,-22.949,211.426,-10.254,0,0
1586464780,-51.27,-31.25,182.129,-24.902,0,0
1586464780,-57.617,-38.574,126.465,-33.203,0,0
1586464780,-61.523,-34.18,-97.656,-26.855,0,0
1586464780,-62.5,-32.227,105.469,-34.18,0,0
1586464780,-53.711,-27.344,246.582,-28.809,0,0
1586464780,-50.293,-21.973,153.32,-20.02,0,0
1586464780,-62.012,-19.531,196.289,-26.367,0,0
1586464780,-64.453,-24.902,55.176,-23.438,0,0
1586464780,-56.152,-24.414,118.164,-32.227,0,0
1586464780,-60.059,-17.09,236.328,-39.551,0,0
1586464780,-68.848,-22.461,233.398,-34.18,0,0
1586464780,-60.547,-28.32,223.145,-26.855,0,0
1586464780,-47.363,-30.762,149.902,-28.809,0,0
1586464780,-51.758,-27.832,103.516,-37.598,0,0
1586464780,-63.477,-25.879,130.859,-30.762,0,0
1586464780,-58.594,-28.809,191.406,-21.484,0,0
1586464780,-40.527,-28.809,206.543,-20.508,0,0
1586464780,-33.203,-28.32,48.828,-25.391,0,0
1586464780,-42.48,-28.809,-196.289,-22.949,0,0
1586464780,-47.852,-23.926,100.098,-25.879,0,0
1586464780,-42.969,-21.973,213.379,-27.344,0,0
1586464780,-47.852,-22.949,173.828,-34.668,0,0
1586464780,-62.012,-23.926,181.152,-39.551,0,0
1586464780,-55.664,-22.461,201.66,-25.879,0,0
1586464780,-43.457,-24.902,231.934,-22.461,0,0
1586464780,-51.758,-29.785,142.578,-33.203,0,0
1586464780,-59.57,-27.344,184.57,-36.621,0,0
1586464780,-53.711,-27.832,183.105,-24.902,0,0
1586464780,-52.246,-35.645,-126.465,-24.414,0,0
1586464780,-54.199,-32.227,110.352,-35.156,0,0
1586464780,-48.34,-23.926,275.879,-39.551,0,0
1586464780,-55.176,-24.414,184.57,-29.785,0,0
1586464780,-56.152,-27.832,211.914,-23.926,0,0
1586464780,-40.527,-26.367,188.477,-26.367,0,0
1586464780,-33.691,-22.949,169.922,-26.855,0,0
1586464780,-37.109,-27.832,145.508,-21.484,0,0
1586464780,-37.109,-28.32,170.898,-19.043,0,0
1586464780,-37.109,-26.855,91.797,-30.273,0,0
1586464780,-30.273,-27.832,-203.613,-30.273,0,0
1586464780,-28.32,-28.32,75.684,-22.949,0,0
1586464780,-40.039,-30.762,216.797,-18.555,0,0
1586464780,-39.062,-32.227,123.047,-19.531,0,0
1586464780,-23.438,-28.32,212.891,-30.273,0,0
1586464780,-26.367,-31.25,-6.348,-38.086,0,0
1586464780,-43.945,-35.645,152.344,-38.086,0,0
1586464780,-49.316,-38.574,287.598,-38.086,0,0
1586464780,-36.133,-37.109,193.848,-40.527,0,0
1586464780,-30.762,-30.762,186.523,-45.898,0,0
1586464780,-47.852,-29.785,126.465,-43.945,0,0
1586464780,-47.363,-28.809,151.367,-39.062,0,0
1586464780,-36.133,-28.32,147.949,-33.691,0,0
1586464780,-37.598,-32.227,195.312,-39.062,0,0
1586464780,-41.016,-32.227,241.699,-28.32,0,0
1586464780,-37.109,-31.738,127.441,-17.09,0,0
1586464780,-41.992,-29.785,159.668,-39.062,0,0
1586464780,-47.363,-31.25,217.773,-56.152,0,0
1586464780,-43.945,-38.574,224.121,-46.387,0,0
1586464780,-41.504,-38.574,283.691,-31.25,0,0
1586464780,-30.762,-39.062,109.863,-22.461,0,0
1586464780,-26.367,-40.527,-13.672,-25.391,0,0
1586464780,-38.086,-33.691,184.57,-38.574,0,0
1586464780,-47.852,-35.645,164.062,-26.855,0,0
1586464780,-54.688,-40.527,175.293,-16.113,0,0
1586464780,-39.551,-38.086,148.438,-20.02,0,0
1586464780,-29.297,-38.086,-92.285,-23.926,0,0
1586464780,-37.109,-37.598,88.867,-31.738,0,0
1586464780,-40.039,-38.574,226.074,-37.109,0,0
1586464780,-35.156,-36.133,253.418,-41.992,0,0
1586464780,-24.902,-32.715,257.324,-40.527,0,0
1586464780,-31.738,-34.668,227.051,-40.039,0,0
1586464780,-42.48,-32.227,240.723,-36.621,0,0
1586464780,-38.086,-32.227,243.652,-30.273,0,0
1586464780,-33.691,-32.715,244.141,-35.156,0,0
1586464780,-37.109,-30.273,156.25,-35.156,0,0
1586464780,-41.016,-32.227,-30.273,-24.414,0,0
1586464780,-41.504,-32.715,170.41,-28.809,0,0
1586464780,-30.762,-34.668,329.59,-33.203,0,0
1586464780,-30.762,-36.133,277.832,-36.133,0,0
1586464780,-44.922,-32.227,227.539,-43.457,0,0
1586464780,-42.969,-27.832,171.875,-40.039,0,0
1586464780,-27.832,-27.344,213.379,-31.738,0,0
1586464780,-27.344,-31.738,156.25,-33.691,0,0
1586464780,-38.086,-32.715,210.938,-37.598,0,0
1586464780,-45.898,-32.715,194.824,-32.227,0,0
1586464780,-41.992,-35.156,79.59,-31.25,0,0
1586464780,-40.039,-35.156,104.004,-28.32,0,0
1586464780,-56.641,-39.062,147.461,-18.555,0,0
1586464780,-68.359,-34.668,239.746,-37.598,0,0
1586464780,-70.312,-32.227,222.168,-59.082,0,0
1586464780,-55.176,-40.039,-84.961,-56.641,0,0
1586464780,-46.875,-38.574,-24.902,-41.504,0,0
1586464780,-48.828,-29.297,241.211,-28.809,0,0
1586464780,-54.199,-31.25,236.328,-33.691,0,0
1586464780,-40.527,-35.156,225.098,-36.621,0,0
1586464780,-33.203,-30.762,131.836,-37.109,0,0
1586464781,-57.129,-33.691,155.273,-55.664,0,0
1586464781,-59.57,-39.551,185.547,-48.34,0,0
1586464781,-36.621,-36.621,124.512,-31.738,0,0
1586464781,-30.762,-29.785,165.039,-30.273,0,0
1586464781,-46.875,-27.832,171.387,-27.832,0,0
1586464781,-51.758,-32.715,172.852,-31.25,0,0
1586464781,-44.434,-32.227,243.164,-34.668,0,0
1586464781,-46.387,-38.086,228.516,-45.898,0,0
1586464781,-51.758,-37.109,261.23,-47.363,0,0
1586464781,-35.645,-32.227,149.902,-21.484,0,0
1586464781,-31.738,-36.621,74.707,-20.996,0,0
1586464781,-41.016,-32.227,235.84,-38.574,0,0
1586464781,-38.086,-28.32,235.84,-37.598,0,0
1586464781,-45.898,-29.297,225.586,-30.762,0,0
1586464781,-45.898,-32.715,107.422,-25.391,0,0
1586464781,-32.227,-36.133,-173.34,-30.273,0,0
1586464781,-31.25,-33.691,101.074,-34.668,0,0
1586464781,-35.156,-31.738,238.281,-26.855,0,0
1586464781,-42.48,-29.297,142.578,-30.273,0,0
1586464781,-46.387,-26.367,215.82,-43.945,0,0
1586464781,-36.133,-27.344,199.219,-37.598,0,0
1586464781,-46.387,-29.297,238.77,-33.691,0,0
1586464781,-57.129,-28.809,260.742,-41.992,0,0
