timestamps,TP9,AF7,AF8,TP10,Right AUX,Marker
1586465080,17.578,-42.969,467.773,-12.695,0,0
1586465080,-26.855,-44.922,535.645,-10.742,0,0
1586465080,-20.996,-45.898,501.953,-3.906,0,0
1586465080,-3.906,-41.016,457.52,-10.742,0,0
1586465080,-22.461,-44.434,423.34,-19.531,0,0
1586465080,-50.293,-49.805,473.145,14.16,0,0
1586465080,-53.711,-44.434,410.645,19.043,0,0
1586465080,-18.555,-43.945,366.699,-14.648,0,0
1586465080,37.598,-41.504,463.867,-41.992,0,0
1586465080,23.926,-41.992,461.914,-38.574,0,0
1586465080,-73.73,-50.293,554.688,-6.348,0,0
1586465080,-51.758,-58.105,556.641,-17.09,0,0
1586465080,13.672,-53.711,475.098,-62.012,0,0
1586465080,-5.371,-41.992,431.641,-50.293,0,0
1586465080,-53.711,-28.809,532.715,-25.879,0,0
1586465080,-100.586,-24.902,635.254,-3.906,0,0
1586465080,-99.121,-31.25,537.109,-35.156,0,0
1586465080,-80.078,-42.969,453.613,-99.609,0,0
1586465080,-13.184,-35.156,471.191,-83.496,0,0
1586465080,-11.23,-23.926,572.754,-36.621,0,0
1586465080,-9.766,-28.809,608.398,-66.895,0,0
1586465080,19.043,-33.691,437.012,-118.164,0,0
1586465080,-85.938,-35.156,477.539,-58.594,0,0
1586465080,-189.453,-33.691,622.559,-15.137,0,0
1586465080,-142.578,-26.367,593.262,-50.293,0,0
1586465080,-42.969,-27.344,407.227,-84.961,0,0
1586465080,-28.809,-38.574,432.617,-97.656,0,0
1586465080,-45.898,-31.25,624.023,-52.734,0,0
1586465080,-92.773,-28.809,636.23,-43.945,0,0
1586465080,-95.215,-33.203,374.023,-113.281,0,0
1586465080,-18.555,-21.484,360.84,-141.602,0,0
1586465080,-58.105,-18.555,619.141,-94.238,0,0
1586465080,-147.949,-30.762,579.102,-77.148,0,0
1586465080,-124.023,-34.18,442.383,-117.676,0,0
1586465080,5.859,-29.297,420.41,-162.109,0,0
1586465080,12.695,-24.902,557.129,-157.715,0,0
1586465080,-165.527,-38.086,565.43,-88.867,0,0
1586465080,-226.562,-47.852,452.148,-78.125,0,0
1586465080,-98.633,-38.574,355.469,-138.184,0,0
1586465080,-61.523,-36.621,432.129,-163.574,0,0
1586465080,-88.379,-38.574,499.512,-128.906,0,0
1586465080,-82.52,-42.969,371.582,-122.07,0,0
1586465080,-24.414,-55.176,288.574,-172.363,0,0
1586465080,-13.672,-52.734,379.395,-173.828,0,0
1586465080,-38.574,-47.363,403.809,-118.652,0,0
1586465080,-92.773,-62.012,350.098,-100.586,0,0
1586465080,-125.488,-66.406,314.941,-150.879,0,0
1586465080,-78.125,-65.918,228.516,-177.246,0,0
1586465080,-94.727,-65.918,259.766,-131.348,0,0
1586465080,-116.211,-70.801,357.422,-117.676,0,0
1586465080,-21.973,-82.031,347.656,-134.766,0,0
1586465080,36.133,-74.707,255.859,-169.922,0,0
1586465080,-48.34,-69.824,247.559,-150.879,0,0
1586465080,-144.531,-78.125,286.621,-116.211,0,0
1586465080,-203.125,-80.078,333.496,-94.238,0,0
1586465080,-125.488,-80.078,244.141,-136.719,0,0
1586465080,-35.645,-75.684,213.379,-158.691,0,0
1586465080,-107.422,-71.777,357.422,-104.004,0,0
1586465080,-160.156,-66.895,414.551,-119.141,0,0
1586465080,-101.074,-60.547,267.578,-186.523,0,0
1586465080,-121.094,-63.477,154.785,-177.246,0,0
1586465080,-195.801,-61.035,286.621,-122.559,0,0
1586465080,-180.664,-50.781,349.121,-104.492,0,0
1586465080,-112.793,-48.34,185.547,-130.371,0,0
1586465080,-107.91,-31.738,53.711,-158.203,0,0
1586465080,-140.137,-17.578,216.309,-109.375,0,0
1586465080,-123.047,3.418,362.305,-84.473,0,0
1586465080,-104.492,18.066,243.164,-109.375,0,0
1586465080,-122.559,16.113,-279.297,-125.488,0,0
1586465080,-127.93,17.578,-85.449,-107.91,0,0
1586465080,-122.07,20.508,417.969,-95.215,0,0
1586465080,-55.176,18.555,152.344,-119.629,0,0
1586465080,-77.637,11.23,-343.262,-154.785,0,0
1586465080,-187.012,5.371,-80.078,-137.695,0,0
1586465080,-184.57,3.906,308.594,-84.961,0,0
1586465080,-133.301,6.836,138.184,-99.609,0,0
1586465080,-106.445,5.859,-261.719,-127.93,0,0
1586465080,-114.258,2.441,-421.875,-136.23,0,0
1586465080,-156.25,0.488,-259.277,-101.074,0,0
1586465080,-213.379,-1.465,-280.273,-84.473,0,0
1586465080,-154.785,-4.883,-350.586,-137.695,0,0
1586465080,-139.648,-14.16,-405.762,-167.48,0,0
1586465080,-145.02,-7.812,-344.238,-149.414,0,0
1586465080,-84.961,-7.324,-320.801,-126.953,0,0
1586465080,-108.887,-12.207,-348.633,-169.922,0,0
1586465080,-74.707,-3.418,-532.715,-228.516,0,0
1586465080,-92.773,7.812,-489.258,-174.316,0,0
1586465080,-198.242,-2.93,-387.695,-128.418,0,0
1586465080,-122.07,-11.719,-387.695,-173.828,0,0
1586465080,-48.828,-11.23,-488.77,-239.258,0,0
1586465080,-138.184,-20.508,-539.062,-229.492,0,0
1586465080,-192.383,-26.855,-427.246,-157.715,0,0
1586465080,-142.578,-23.926,-386.23,-145.02,0,0
1586465080,-64.941,-14.16,-447.754,-196.289,0,0
1586465080,-81.543,-11.719,-606.445,-187.5,0,0
1586465080,-121.582,-7.812,-546.875,-130.371,0,0
1586465080,-131.836,-6.348,-296.875,-100.586,0,0
1586465080,-180.664,-15.137,-424.316,-131.348,0,0
1586465080,-131.348,-27.832,-612.793,-165.527,0,0
1586465080,-95.215,-40.527,-498.535,-125.977,0,0
1586465080,-139.16,-24.902,-427.734,-88.867,0,0
1586465080,-163.574,-19.531,-585.938,-117.188,0,0
1586465080,-104.492,-23.438,-841.797,-167.969,0,0
1586465080,-99.609,-22.949,-770.02,-142.09,0,0
1586465080,-160.156,-33.203,-465.82,-87.891,0,0
1586465080,-124.512,-45.898,-555.664,-113.77,0,0
1586465080,-100.586,-50.781,-771.484,-188.965,0,0
1586465080,-108.887,-56.641,-726.562,-186.035,0,0
1586465080,-119.141,-48.34,-618.652,-105.957,0,0
1586465080,-159.668,-35.645,-626.953,-90.332,0,0
1586465080,-116.211,-50.293,-706.543,-121.582,0,0
1586465080,-77.148,-60.059,-690.918,-131.348,0,0
1586465080,-145.508,-66.895,-527.344,-118.652,0,0
1586465080,-181.641,-79.59,-552.734,-104.98,0,0
1586465080,-142.09,-86.914,-700.684,-122.559,0,0
1586465080,-93.262,-86.426,-683.105,-150.879,0,0
1586465080,-111.328,-83.496,-510.742,-132.812,0,0
1586465080,-119.141,-89.355,-500.977,-93.75,0,0
1586465080,-142.09,-95.703,-595.215,-111.328,0,0
1586465080,-129.883,-100.098,-655.273,-166.016,0,0
1586465080,-83.496,-102.539,-630.371,-149.902,0,0
1586465080,-79.102,-104.98,-509.277,-90.332,0,0
1586465080,-53.711,-109.863,-559.57,-119.141,0,0
1586465080,-74.219,-112.793,-681.152,-156.738,0,0
1586465080,-157.227,-119.629,-623.047,-143.555,0,0
1586465080,-245.605,-120.117,-604.492,-98.633,0,0
1586465080,-248.047,-126.953,-578.125,-111.328,0,0
1586465080,-169.922,-142.578,-573.242,-156.738,0,0
1586465080,-120.117,-145.508,-699.219,-196.777,0,0
1586465080,-187.5,-151.367,-620.117,-149.902,0,0
1586465080,-194.824,-150.391,-467.285,-103.516,0,0
1586465080,-74.707,-145.996,-476.074,-167.48,0,0
1586465080,-30.762,-145.996,-679.199,-220.703,0,0
1586465080,-143.066,-158.203,-629.395,-163.086,0,0
1586465080,-129.883,-178.711,-376.953,-115.234,0,0
1586465080,-125,-189.453,-412.109,-147.461,0,0
1586465080,-272.461,-189.941,-642.578,-179.688,0,0
1586465080,-286.621,-176.758,-663.574,-152.344,0,0
1586465080,-232.422,-171.875,-501.953,-125,0,0
1586465080,-163.574,-174.316,-453.125,-145.508,0,0
1586465080,-135.742,-178.223,-651.855,-202.148,0,0
1586465080,-218.262,-188.965,-759.277,-180.664,0,0
1586465080,-231.445,-192.383,-407.715,-105.957,0,0
1586465080,-216.309,-190.918,-305.176,-132.812,0,0
1586465080,-193.359,-208.496,-498.535,-178.711,0,0
1586465080,-146.973,-221.68,-648.926,-177.734,0,0
1586465080,-190.43,-211.426,-469.238,-113.281,0,0
1586465080,-259.277,-209.473,-317.383,-96.191,0,0
1586465080,-169.434,-217.285,-465.82,-172.363,0,0
1586465080,-81.055,-217.285,-667.48,-245.605,0,0
1586465080,-207.031,-229.492,-513.184,-202.148,0,0
1586465080,-288.574,-250,-291.992,-143.555,0,0
1586465080,-277.832,-240.234,-542.48,-157.227,0,0
1586465080,-285.156,-238.281,-771.484,-199.219,0,0
1586465080,-263.672,-245.117,-469.727,-208.984,0,0
1586465080,-242.676,-251.953,-323.73,-179.688,0,0
1586465080,-244.141,-261.719,-376.465,-189.941,0,0
1586465080,-217.285,-263.672,-528.809,-230.957,0,0
1586465080,-221.191,-262.695,-557.617,-231.934,0,0
1586465080,-240.234,-272.461,-351.562,-212.402,0,0
1586465080,-293.945,-288.086,-385.742,-197.266,0,0
1586465080,-322.754,-293.457,-521.973,-234.375,0,0
1586465080,-255.859,-302.734,-535.156,-271.973,0,0
1586465080,-252.441,-299.805,-428.711,-217.773,0,0
1586465080,-365.234,-313.965,-430.664,-156.25,0,0
1586465080,-384.766,-325.684,-370.605,-183.105,0,0
1586465080,-275.879,-305.664,-392.09,-294.922,0,0
1586465080,-241.211,-301.758,-423.34,-294.434,0,0
1586465080,-346.191,-316.895,-371.094,-208.984,0,0
1586465080,-294.434,-330.566,-169.434,-233.887,0,0
1586465080,-201.172,-338.867,-255.371,-292.48,0,0
1586465080,-339.844,-336.426,-395.508,-274.414,0,0
1586465081,-408.691,-332.031,-33.691,-223.633,0,0
1586465081,-330.078,-345.703,106.445,-246.094,0,0
1586465081,-319.824,-353.516,-222.168,-305.664,0,0
1586465081,-315.918,-336.426,-556.152,-311.035,0,0
1586465081,-328.613,-338.867,-341.797,-259.766,0,0
1586465081,-324.707,-357.91,164.062,-268.066,0,0
1586465081,-246.582,-372.07,78.613,-336.426,0,0
1586465081,-227.539,-361.816,-289.551,-354.98,0,0
1586465081,-327.637,-346.191,-100.586,-269.531,0,0
1586465081,-425.781,-358.398,196.777,-218.262,0,0
1586465081,-358.887,-356.445,5.859,-280.273,0,0
1586465081,-277.832,-346.68,-356.934,-342.285,0,0
1586465081,-328.125,-353.516,-304.688,-283.691,0,0
1586465081,-339.355,-345.703,-135.254,-215.332,0,0
1586465081,-273.438,-336.914,-294.922,-222.168,0,0
1586465081,-265.625,-339.844,-507.324,-263.672,0,0
1586465081,-252.441,-332.031,-431.641,-297.852,0,0
1586465081,-248.047,-324.707,-118.164,-237.305,0,0
1586465081,-284.18,-326.66,-158.691,-193.359,0,0
1586465081,-270.996,-325.684,-430.176,-237.793,0,0
1586465081,-208.008,-314.941,-453.613,-256.348,0,0
1586465081,-210.938,-310.547,-320.801,-196.289,0,0
1586465081,-262.695,-313.965,-288.574,-184.57,0,0
1586465081,-241.211,-299.805,-383.301,-219.727,0,0
1586465081,-184.57,-285.645,-456.543,-251.953,0,0
1586465081,-207.52,-282.227,-411.133,-188.477,0,0
1586465081,-187.012,-271.973,-479.492,-118.164,0,0
1586465081,-120.605,-254.395,-565.918,-148.438,0,0
1586465081,-148.926,-237.305,-490.723,-187.012,0,0
1586465081,-201.172,-239.746,-461.426,-152.344,0,0
1586465081,-177.734,-240.234,-422.852,-106.445,0,0
1586465081,-117.676,-225.586,-381.836,-118.652,0,0
1586465081,-104.004,-231.934,-480.957,-160.645,0,0
1586465081,-136.23,-237.793,-587.891,-157.715,0,0
1586465081,-164.551,-222.656,-472.168,-98.633,0,0
1586465081,-158.203,-212.402,-417.48,-84.961,0,0
1586465081,-95.703,-212.402,-544.434,-120.117,0,0
1586465081,-82.52,-213.867,-710.449,-133.301,0,0
1586465081,-125,-199.707,-651.367,-78.613,0,0
1586465081,-118.164,-173.828,-437.988,-51.758,0,0
1586465081,-41.016,-164.551,-462.891,-89.844,0,0
1586465081,-42.969,-172.852,-692.383,-99.609,0,0
1586465081,-90.82,-177.734,-655.273,-64.453,0,0
1586465081,-112.793,-171.387,-469.727,-47.852,0,0
1586465081,-99.609,-161.133,-504.395,-69.824,0,0
1586465081,-55.664,-172.363,-645.508,-98.633,0,0
1586465081,-45.41,-167.48,-655.273,-69.824,0,0
1586465081,-86.914,-147.461,-475.586,2.93,0,0
1586465081,-39.551,-147.949,-473.145,0,0,0
1586465081,-1.953,-156.738,-695.312,-57.129,0,0
1586465081,-16.113,-159.668,-724.121,-69.336,0,0
1586465081,-0.977,-150.879,-494.629,-29.785,0,0
1586465081,-29.297,-147.461,-486.816,6.836,0,0
1586465081,-62.988,-149.414,-654.297,-18.066,0,0
1586465081,-26.855,-148.438,-653.32,-82.52,0,0
1586465081,-32.227,-143.066,-545.41,-23.926,0,0
1586465081,-80.078,-133.789,-552.734,32.715,0,0
1586465081,-48.828,-134.277,-657.715,-11.719,0,0
1586465081,11.719,-139.648,-717.285,-48.34,0,0
1586465081,-35.645,-137.207,-596.68,-46.387,0,0
1586465081,-78.125,-129.395,-570.312,-45.898,0,0
1586465081,-38.086,-133.789,-650.391,-79.102,0,0
1586465081,-71.289,-131.836,-771.973,-127.93,0,0
1586465081,-221.68,-139.648,-972.656,-217.285,0,0
1586465081,-251.953,-139.648,-998.047,-226.074,0,0
1586465081,-226.074,-128.906,-988.77,-163.086,0,0
1586465081,-247.07,-137.695,-995.117,-167.969,0,0
1586465081,-188.965,-140.625,-979.004,-183.594,0,0
1586465081,-122.559,-127.93,-985.352,-121.582,0,0
1586465081,-117.188,-118.652,-979.004,-96.191,0,0
1586465081,-48.34,-122.559,-942.383,-118.164,0,0
1586465081,-10.254,-135.254,-963.379,-118.164,0,0
1586465081,-84.961,-130.371,-952.148,-71.289,0,0
1586465081,-134.766,-125,-915.039,-29.297,0,0
1586465081,-101.562,-126.953,-888.184,-37.598,0,0
1586465081,-40.527,-137.695,-897.461,-78.125,0,0
1586465081,-37.598,-141.113,-962.402,-48.34,0,0
1586465081,-43.945,-126.465,-890.625,-14.648,0,0
1586465081,75.684,-122.559,-767.09,-71.289,0,0
1586465081,73.242,-129.395,-838.867,-84.473,0,0
1586465081,-109.863,-134.277,-850.098,-18.066,0,0
1586465081,-138.184,-128.906,-791.992,35.645,0,0
1586465081,-40.039,-111.816,-755.859,9.766,0,0
1586465081,84.473,-98.633,-770.02,-47.363,0,0
1586465081,59.57,-110.352,-824.707,-48.34,0,0
1586465081,-22.949,-128.906,-771.484,-26.367,0,0
1586465081,-2.93,-115.723,-699.707,-14.16,0,0
1586465081,34.18,-105.957,-775.879,-21.973,0,0
1586465081,86.914,-103.027,-852.051,-41.016,0,0
1586465081,36.133,-98.145,-663.574,-12.695,0,0
1586465081,-40.527,-98.145,-562.988,2.441,0,0
1586465081,-33.691,-109.863,-677.734,-10.254,0,0
1586465081,22.949,-126.465,-742.188,-55.664,0,0
1586465081,41.016,-108.887,-625,-19.531,0,0
1586465081,4.395,-88.379,-531.25,39.062,0,0
1586465081,-10.742,-91.309,-593.75,10.254,0,0
1586465081,-2.441,-94.238,-720.703,-33.203,0,0
1586465081,17.09,-90.82,-726.562,-27.344,0,0
1586465081,10.254,-92.285,-590.82,25.391,0,0
1586465081,33.203,-106.934,-675.293,45.41,0,0
1586465081,62.012,-114.746,-750.977,0.977,0,0
1586465081,9.277,-100.586,-635.254,-35.156,0,0
1586465081,-36.133,-92.285,-651.367,-1.953,0,0
1586465081,-20.996,-98.145,-560.547,12.695,0,0
1586465081,1.465,-105.957,-527.344,0.488,0,0
1586465081,40.527,-105.469,-664.551,-14.16,0,0
1586465081,9.766,-106.445,-630.859,28.809,0,0
1586465081,-40.039,-96.68,-478.516,41.504,0,0
1586465081,24.902,-83.984,-484.375,17.578,0,0
1586465081,83.008,-92.773,-633.789,-17.578,0,0
1586465081,50.781,-116.699,-641.602,-1.465,0,0
1586465081,-21.484,-115.234,-581.055,61.035,0,0
1586465081,-46.875,-95.215,-465.82,51.758,0,0
1586465081,1.953,-106.934,-476.562,-11.23,0,0
1586465081,63.477,-113.77,-617.188,-37.598,0,0
1586465081,65.918,-97.656,-554.688,6.348,0,0
1586465081,47.363,-83.984,-449.219,24.414,0,0
1586465081,54.199,-101.562,-556.152,-14.648,0,0
1586465081,55.664,-109.863,-613.77,-32.227,0,0
1586465081,4.883,-93.262,-499.023,31.25,0,0
1586465081,-68.359,-96.191,-467.285,51.27,0,0
1586465081,-50.293,-107.91,-542.48,16.113,0,0
1586465081,15.625,-110.352,-716.797,-0.977,0,0
1586465081,25.391,-102.051,-679.199,30.762,0,0
1586465081,22.461,-91.309,-419.922,51.758,0,0
1586465081,24.414,-89.844,-501.953,24.902,0,0
1586465081,25.879,-91.797,-627.441,1.465,0,0
1586465081,37.598,-93.75,-543.457,12.207,0,0
1586465081,69.336,-92.773,-456.543,16.113,0,0
1586465081,45.41,-89.355,-507.324,18.066,0,0
1586465081,-18.555,-92.285,-582.031,10.742,0,0
1586465081,20.02,-100.098,-581.055,-3.906,0,0
1586465081,18.066,-96.191,-559.57,36.133,0,0
1586465081,-49.805,-88.867,-577.637,69.336,0,0
1586465081,-30.762,-91.797,-641.113,22.949,0,0
1586465081,54.199,-80.566,-615.723,-23.438,0,0
1586465081,26.367,-72.754,-516.113,0.977,0,0
1586465081,-70.312,-83.008,-535.645,35.156,0,0
1586465081,0.977,-89.355,-594.727,22.461,0,0
1586465081,141.602,-87.891,-549.316,-11.719,0,0
1586465081,77.637,-93.262,-510.742,3.906,0,0
1586465081,-43.457,-102.051,-521.484,45.898,0,0
1586465081,18.066,-85.449,-543.457,41.016,0,0
1586465081,61.035,-71.289,-542.48,20.02,0,0
1586465081,16.113,-87.402,-543.457,10.254,0,0
1586465081,-4.395,-107.422,-628.906,27.832,0,0
1586465081,-26.367,-99.121,-666.504,52.246,0,0
1586465081,-15.137,-90.82,-544.434,8.301,0,0
1586465081,7.812,-101.074,-570.312,-35.156,0,0
1586465081,-33.691,-104.004,-566.406,15.625,0,0
1586465081,-28.32,-101.562,-476.562,47.852,0,0
1586465081,59.57,-96.68,-473.145,6.348,0,0
1586465081,67.383,-105.957,-567.383,-30.762,0,0
1586465081,3.906,-103.027,-582.52,19.531,0,0
1586465081,-8.301,-87.891,-490.234,36.133,0,0
1586465081,24.902,-86.426,-464.844,0,0,0
1586465081,55.664,-93.262,-592.285,-9.277,0,0
1586465081,58.594,-99.121,-639.648,16.113,0,0
1586465081,-17.578,-92.773,-514.16,63.965,0,0
1586465081,-48.828,-74.707,-443.848,50.781,0,0
1586465081,0,-79.59,-598.145,-4.883,0,0
1586465081,-16.602,-100.098,-660.156,-20.508,0,0
1586465081,-17.09,-90.332,-481.445,15.137,0,0
1586465081,14.648,-82.52,-429.688,33.203,0,0
1586465081,49.805,-82.031,-554.199,-6.836,0,0
1586465081,65.918,-92.773,-612.793,-18.066,0,0
1586465081,13.184,-97.168,-462.402,22.949,0,0
1586465081,-35.645,-83.496,-423.828,11.23,0,0
1586465081,17.09,-85.938,-505.371,-25.391,0,0
1586465081,51.27,-88.379,-627.93,-29.785,0,0
1586465081,-15.137,-79.102,-538.574,25.879,0,0
1586465081,-65.43,-89.355,-454.59,62.988,0,0
1586465081,-33.203,-100.586,-538.574,21.484,0,0
1586465081,3.418,-88.379,-553.223,-23.438,0,0
1586465081,22.461,-82.031,-487.305,0.488,0,0
1586465081,54.199,-81.055,-437.988,29.785,0,0
1586465081,47.852,-71.777,-627.441,36.133,0,0
1586465081,18.066,-80.566,-691.895,-11.719,0,0
1586465081,0,-89.355,-540.039,-39.551,0,0
1586465081,-46.387,-84.961,-445.801,26.855,0,0
1586465081,-26.367,-84.961,-457.52,30.762,0,0
1586465081,69.336,-81.055,-566.895,-19.531,0,0
1586465081,45.898,-77.637,-522.461,-17.578,0,0
1586465081,-5.371,-78.613,-472.656,45.898,0,0
1586465081,19.531,-75.684,-563.477,46.387,0,0
1586465081,55.176,-74.219,-471.191,12.207,0,0
1586465081,50.781,-79.59,-474.609,7.812,0,0
1586465081,13.184,-78.125,-575.684,33.691,0,0
1586465081,32.715,-70.312,-533.203,48.828,0,0
1586465081,29.785,-68.359,-485.352,44.434,0,0
1586465081,-31.25,-82.52,-603.027,14.648,0,0
1586465081,4.883,-85.938,-553.223,29.785,0,0
1586465081,62.988,-71.289,-477.051,53.223,0,0
1586465081,43.457,-70.312,-493.652,12.207,0,0
1586465081,52.734,-76.172,-542.969,-4.395,0,0
1586465081,46.875,-72.266,-700.684,23.926,0,0
1586465081,40.039,-62.5,-668.945,59.57,0,0
1586465081,76.66,-50.781,-430.176,42.969,0,0
1586465081,85.938,-49.805,-515.625,16.113,0,0
1586465081,46.875,-59.082,-607.422,25.391,0,0
1586465081,13.184,-60.547,-480.957,71.777,0,0
1586465081,42.48,-57.617,-523.926,102.051,0,0
1586465081,131.348,-47.852,-592.773,46.875,0,0
1586465081,178.223,-50.781,-556.152,-0.488,0,0
1586465081,111.816,-54.688,-501.953,33.203,0,0
1586465081,38.574,-53.711,-502.93,62.012,0,0
1586465081,32.715,-60.059,-578.125,59.082,0,0
1586465081,84.473,-70.801,-683.105,37.598,0,0
1586465081,83.984,-73.242,-561.035,69.824,0,0
1586465081,-40.039,-58.105,-410.156,98.145,0,0
1586465081,-14.648,-58.105,-513.184,55.664,0,0
1586465081,110.84,-66.406,-629.883,23.438,0,0
1586465081,119.141,-72.266,-534.668,12.207,0,0
1586465081,48.34,-79.102,-444.336,31.738,0,0
1586465081,-25.879,-81.055,-480.957,44.922,0,0
1586465081,10.254,-76.172,-515.137,24.414,0,0
1586465081,86.914,-73.242,-563.965,7.812,0,0
1586465081,24.414,-76.172,-552.246,35.156,0,0
1586465081,-20.508,-71.777,-622.07,80.078,0,0
1586465081,28.809,-63.965,-637.695,61.523,0,0
1586465081,105.957,-73.242,-459.473,6.836,0,0
1586465081,148.926,-78.125,-471.68,31.738,0,0
1586465081,50.781,-71.289,-521.484,71.289,0,0
1586465081,31.25,-67.383,-479.98,51.758,0,0
1586465081,123.535,-59.57,-482.91,22.949,0,0
1586465081,74.707,-65.918,-545.41,33.203,0,0
1586465081,-27.832,-72.266,-531.25,52.734,0,0
1586465081,35.156,-70.312,-451.172,69.336,0,0
1586465081,141.602,-69.824,-497.07,38.574,0,0
1586465081,25.391,-82.031,-625.977,2.441,0,0
1586465081,-89.355,-99.121,-588.379,40.039,0,0
1586465081,-18.066,-83.008,-464.355,61.523,0,0
1586465081,48.828,-70.312,-447.266,23.438,0,0
1586465081,41.992,-85.938,-574.219,-9.277,0,0
1586465081,16.113,-88.867,-550.293,41.504,0,0
1586465081,-32.227,-82.52,-414.551,60.547,0,0
1586465081,-3.906,-84.473,-436.523,40.527,0,0
1586465081,104.98,-91.309,-580.078,-4.883,0,0
1586465081,81.543,-94.727,-549.805,21.973,0,0
1586465081,16.113,-83.496,-395.02,57.129,0,0
1586465081,40.039,-86.426,-415.527,55.664,0,0
1586465081,40.039,-100.586,-677.246,41.504,0,0
1586465081,-2.93,-84.473,-678.711,11.719,0,0
1586465081,12.207,-69.824,-444.824,31.738,0,0
1586465081,49.316,-82.52,-489.258,34.668,0,0
1586465081,30.762,-100.098,-517.578,9.766,0,0
1586465081,21.484,-96.68,-535.156,-2.441,0,0
1586465081,57.129,-86.914,-479.98,18.555,0,0
1586465081,62.988,-86.914,-452.148,34.668,0,0
1586465081,-17.578,-96.68,-565.918,17.09,0,0
1586465081,-27.832,-93.262,-599.609,5.371,0,0
1586465081,10.742,-78.125,-498.047,25.879,0,0
1586465081,5.371,-83.008,-506.348,32.227,0,0
1586465081,81.055,-84.473,-559.57,28.809,0,0
1586465081,108.887,-87.891,-617.188,-3.418,0,0
1586465081,27.344,-89.844,-515.625,3.418,0,0
1586465082,-21.973,-98.633,-517.578,37.109,0,0
1586465082,-16.113,-97.168,-656.738,38.086,0,0
1586465082,58.105,-67.383,-560.059,21.484,0,0
1586465082,51.27,-72.754,-509.766,11.23,0,0
1586465082,-26.367,-91.309,-548.34,23.438,0,0
1586465082,3.418,-83.008,-563.965,21.484,0,0
1586465082,21.973,-73.73,-520.02,-2.93,0,0
1586465082,-9.277,-72.754,-522.461,-9.277,0,0
1586465082,-4.883,-77.637,-571.289,-4.395,0,0
1586465082,50.781,-73.73,-609.375,-1.465,0,0
1586465082,77.637,-71.777,-550.781,8.301,0,0
1586465082,59.082,-85.449,-604.004,2.93,0,0
1586465082,0,-95.215,-693.848,18.066,0,0
1586465082,-68.848,-96.68,-575.195,42.969,0,0
1586465082,-36.133,-96.68,-465.332,33.691,0,0
1586465082,44.922,-98.145,-590.82,-8.789,0,0
1586465082,50.293,-91.797,-695.801,-2.441,0,0
1586465082,-36.621,-80.566,-603.027,36.133,0,0
1586465082,-74.707,-78.613,-493.164,58.105,0,0
1586465082,-1.953,-83.496,-545.898,20.996,0,0
1586465082,47.852,-88.867,-624.512,-31.25,0,0
1586465082,12.207,-94.238,-575.195,14.648,0,0
1586465082,-38.086,-92.773,-474.609,45.898,0,0
1586465082,23.438,-92.285,-545.41,23.438,0,0
1586465082,68.359,-91.797,-692.383,-26.855,0,0
1586465082,9.766,-80.078,-512.207,-4.883,0,0
1586465082,-64.453,-75.684,-456.055,36.621,0,0
1586465082,-20.508,-93.75,-615.723,28.32,0,0
1586465082,26.367,-95.703,-680.664,-20.02,0,0
1586465082,6.348,-77.148,-506.836,-35.645,0,0
1586465082,2.441,-85.938,-455.078,-9.277,0,0
1586465082,-23.926,-102.539,-524.902,-13.184,0,0
1586465082,-54.688,-100.586,-598.145,-46.875,0,0
1586465082,-60.547,-99.121,-625,-28.32,0,0
1586465082,-62.012,-108.887,-525.879,7.812,0,0
1586465082,-74.707,-119.141,-636.719,-33.203,0,0
1586465082,-74.219,-121.582,-721.191,-75.684,0,0
1586465082,-78.125,-120.117,-504.395,-62.012,0,0
1586465082,-129.395,-125,-489.746,-30.762,0,0
1586465082,-141.602,-128.906,-512.207,-7.324,0,0
1586465082,-15.137,-116.699,-492.188,-43.945,0,0
1586465082,95.215,-109.375,-553.223,-46.387,0,0
1586465082,-13.184,-119.629,-535.645,8.301,0,0
1586465082,-146.484,-123.047,-485.84,32.715,0,0
1586465082,-83.496,-115.723,-484.375,14.648,0,0
1586465082,53.223,-108.398,-577.148,-26.855,0,0
1586465082,-0.488,-118.652,-596.68,-3.906,0,0
1586465082,-125,-128.906,-568.848,27.344,0,0
1586465082,-86.914,-114.746,-466.309,28.809,0,0
1586465082,21.484,-100.586,-471.68,4.883,0,0
1586465082,47.852,-114.746,-613.77,-10.742,0,0
1586465082,-17.578,-115.723,-583.496,26.855,0,0
1586465082,-68.359,-97.656,-431.152,78.125,0,0
1586465082,-34.18,-107.422,-466.309,27.832,0,0
1586465082,29.297,-106.445,-566.895,-31.25,0,0
1586465082,-13.184,-98.145,-518.066,18.555,0,0
1586465082,-38.086,-102.051,-484.375,36.133,0,0
1586465082,21.973,-88.379,-562.988,2.93,0,0
1586465082,39.551,-86.426,-722.656,-9.277,0,0
1586465082,14.648,-88.867,-671.387,10.742,0,0
1586465082,-21.484,-82.031,-417.48,34.668,0,0
1586465082,-50.781,-90.82,-464.355,26.367,0,0
1586465082,-21.484,-105.957,-602.051,2.441,0,0
1586465082,2.93,-102.539,-552.246,8.301,0,0
1586465082,15.625,-94.238,-442.383,30.273,0,0
1586465082,29.785,-98.145,-491.699,20.02,0,0
1586465082,39.062,-99.121,-566.895,3.418,0,0
1586465082,13.184,-102.539,-518.555,24.414,0,0
1586465082,-51.27,-99.121,-486.816,36.621,0,0
1586465082,-30.762,-88.379,-561.523,27.344,0,0
1586465082,30.273,-85.938,-612.305,6.348,0,0
1586465082,56.641,-86.426,-584.473,-20.02,0,0
1586465082,3.418,-94.238,-527.832,9.766,0,0
1586465082,-45.898,-97.168,-545.41,31.25,0,0
1586465082,12.695,-86.914,-583.984,7.324,0,0
1586465082,29.785,-84.961,-540.527,-15.137,0,0
1586465082,-9.277,-98.633,-500.488,7.812,0,0
1586465082,2.93,-97.656,-506.348,40.527,0,0
1586465082,35.645,-89.355,-537.109,37.598,0,0
1586465082,-19.531,-99.121,-513.672,-3.906,0,0
1586465082,-62.5,-101.562,-508.789,6.836,0,0
1586465082,-36.621,-95.215,-636.23,39.551,0,0
1586465082,6.836,-93.75,-640.625,20.996,0,0
1586465082,22.461,-95.703,-470.215,-2.441,0,0
1586465082,6.836,-91.309,-542.48,-21.484,0,0
1586465082,-64.941,-92.285,-532.227,-3.906,0,0
1586465082,-74.219,-97.656,-486.328,16.602,0,0
1586465082,12.207,-97.168,-520.508,-2.93,0,0
1586465082,10.254,-92.773,-532.715,-30.762,0,0
1586465082,-39.062,-92.285,-554.199,-12.695,0,0
1586465082,10.742,-83.008,-493.652,-6.348,0,0
1586465082,27.832,-80.566,-450.195,-28.809,0,0
1586465082,-24.414,-85.938,-541.016,-44.922,0,0
1586465082,-21.973,-86.426,-585.938,-33.203,0,0
1586465082,-38.574,-89.355,-477.539,1.465,0,0
1586465082,-66.895,-99.609,-458.984,19.043,0,0
1586465082,-7.812,-100.098,-630.371,-6.836,0,0
1586465082,22.949,-81.543,-630.859,-15.625,0,0
1586465082,-41.992,-81.055,-439.941,23.438,0,0
1586465082,-3.906,-78.613,-390.625,23.438,0,0
1586465082,89.355,-80.078,-543.457,-23.438,0,0
1586465082,63.965,-87.891,-615.723,-41.016,0,0
1586465082,-31.738,-83.984,-477.539,4.883,0,0
1586465082,-55.176,-87.891,-437.5,17.578,0,0
1586465082,-24.414,-92.285,-508.301,5.859,0,0
1586465082,25.391,-87.402,-603.516,4.883,0,0
1586465082,25.879,-82.52,-508.301,2.441,0,0
1586465082,-23.438,-88.379,-446.289,-5.371,0,0
1586465082,-21.973,-90.332,-530.762,-4.395,0,0
1586465082,48.34,-87.891,-540.527,-25.391,0,0
1586465082,78.613,-87.891,-484.375,-38.086,0,0
1586465082,-35.156,-92.285,-436.523,-2.441,0,0
1586465082,-84.473,-98.145,-602.051,13.184,0,0
1586465082,-23.438,-97.168,-719.238,-3.906,0,0
1586465082,-30.273,-103.516,-554.199,-14.648,0,0
1586465082,-59.57,-97.168,-461.914,1.953,0,0
1586465082,7.812,-88.867,-516.113,5.371,0,0
1586465082,70.312,-93.262,-592.285,-27.344,0,0
1586465082,48.828,-83.496,-588.867,-38.574,0,0
1586465082,0,-73.242,-568.359,-21.484,0,0
1586465082,-31.25,-78.125,-590.82,4.883,0,0
1586465082,-7.324,-82.52,-508.301,9.277,0,0
1586465082,10.742,-87.891,-479.98,-57.617,0,0
1586465082,-41.016,-91.309,-558.594,-43.457,0,0
1586465082,-62.988,-90.332,-556.641,13.184,0,0
1586465082,-16.113,-89.355,-439.941,0.488,0,0
1586465082,61.035,-84.473,-516.602,-39.062,0,0
1586465082,60.547,-85.449,-565.918,-17.09,0,0
1586465082,-56.152,-96.68,-489.258,23.438,0,0
1586465082,-75.195,-102.051,-518.066,18.555,0,0
1586465082,-4.395,-94.238,-569.336,-34.668,0,0
1586465082,20.996,-83.496,-696.289,-37.598,0,0
1586465082,-37.598,-78.125,-692.871,17.578,0,0
1586465082,-51.27,-82.031,-449.219,19.531,0,0
1586465082,4.395,-95.703,-520.02,-22.949,0,0
1586465082,9.766,-96.191,-608.887,-17.09,0,0
1586465082,-14.16,-77.148,-516.602,29.297,0,0
1586465082,32.227,-69.824,-507.812,6.836,0,0
1586465082,18.066,-81.543,-568.359,-27.344,0,0
1586465082,-61.035,-80.078,-588.867,-27.344,0,0
1586465082,-91.797,-79.102,-531.25,6.348,0,0
1586465082,-93.262,-96.68,-544.434,14.16,0,0
1586465082,-24.414,-95.703,-580.566,-13.672,0,0
1586465082,50.293,-90.332,-648.926,-3.418,0,0
1586465082,-7.324,-84.961,-543.457,0.488,0,0
1586465082,-103.027,-84.473,-423.828,6.836,0,0
1586465082,-73.73,-94.727,-541.504,-9.766,0,0
1586465082,-3.418,-90.332,-668.945,-53.711,0,0
1586465082,35.645,-82.031,-560.547,-64.453,0,0
1586465082,-6.836,-94.727,-490.234,-11.23,0,0
1586465082,-31.738,-87.402,-557.617,41.504,0,0
1586465082,22.461,-67.871,-559.082,-15.625,0,0
1586465082,3.418,-84.473,-583.984,-52.246,0,0
1586465082,-40.527,-91.797,-565.918,-11.23,0,0
1586465082,-29.785,-81.055,-644.043,6.348,0,0
1586465082,10.742,-80.078,-645.508,-0.977,0,0
1586465082,46.875,-80.078,-516.602,-15.625,0,0
1586465082,42.969,-90.332,-539.062,1.465,0,0
1586465082,44.922,-93.75,-497.07,-7.812,0,0
1586465082,6.348,-92.285,-469.727,-15.625,0,0
1586465082,10.742,-95.703,-528.32,-14.16,0,0
1586465082,16.602,-87.891,-583.984,-25.391,0,0
1586465082,-34.668,-95.215,-602.051,-2.93,0,0
1586465082,-41.016,-88.867,-514.648,29.297,0,0
1586465082,8.301,-75.684,-520.996,-11.719,0,0
1586465082,41.992,-92.285,-642.09,-60.059,0,0
1586465082,-12.207,-92.285,-596.191,-3.418,0,0
1586465082,-70.801,-80.566,-489.746,29.297,0,0
1586465082,-5.859,-86.914,-452.637,-17.09,0,0
1586465082,76.172,-90.332,-582.031,-63.477,0,0
1586465082,50.293,-91.797,-548.34,2.441,0,0
1586465082,0.488,-87.402,-416.992,30.762,0,0
1586465082,-9.277,-92.773,-453.613,-25.879,0,0
1586465082,-5.371,-97.656,-584.961,-39.062,0,0
1586465082,26.855,-77.148,-591.309,-15.625,0,0
1586465082,20.996,-73.73,-423.828,-3.418,0,0
1586465082,-14.648,-84.961,-455.078,-9.277,0,0
1586465082,28.809,-84.961,-687.012,-15.137,0,0
1586465082,1.465,-93.75,-703.125,-6.836,0,0
1586465082,-75.195,-108.887,-463.379,5.371,0,0
1586465082,-51.27,-106.934,-428.223,1.465,0,0
1586465082,53.711,-107.91,-566.895,-23.438,0,0
1586465082,49.805,-103.516,-588.379,-20.02,0,0
1586465082,-25.879,-84.961,-452.637,-1.465,0,0
1586465082,-33.203,-79.59,-460.938,-7.812,0,0
1586465082,-0.977,-83.984,-551.758,-8.301,0,0
1586465082,34.668,-87.402,-575.684,-33.691,0,0
1586465082,3.418,-87.402,-496.094,-6.836,0,0
1586465082,-43.457,-84.473,-439.453,57.129,0,0
1586465082,-24.414,-87.891,-539.551,32.227,0,0
1586465082,28.32,-87.402,-557.617,-30.762,0,0
1586465082,32.715,-79.102,-461.426,-12.695,0,0
1586465082,18.555,-84.961,-486.816,4.395,0,0
1586465082,54.688,-89.844,-554.688,-13.672,0,0
1586465082,49.805,-83.984,-513.184,-13.184,0,0
1586465082,-5.859,-88.379,-485.352,-6.348,0,0
1586465082,-43.945,-101.562,-549.805,23.438,0,0
1586465082,-41.992,-103.516,-574.707,16.602,0,0
1586465082,51.758,-88.379,-497.559,-40.039,0,0
1586465082,114.258,-77.148,-541.992,-30.762,0,0
1586465082,-11.23,-91.797,-535.156,14.648,0,0
1586465082,-107.422,-96.68,-546.875,23.926,0,0
1586465082,-25.391,-83.496,-537.109,7.324,0,0
1586465082,54.688,-94.238,-550.293,-15.137,0,0
1586465082,-21.973,-101.562,-699.219,19.531,0,0
1586465082,-92.773,-86.914,-657.715,50.781,0,0
1586465082,-39.551,-84.473,-461.426,8.789,0,0
1586465082,39.551,-93.262,-572.266,-38.574,0,0
1586465082,33.203,-97.168,-604.492,-38.574,0,0
1586465082,-16.113,-85.449,-517.09,-9.766,0,0
1586465082,-12.695,-83.496,-482.422,-13.672,0,0
1586465082,-6.836,-103.027,-539.551,-9.766,0,0
1586465082,-44.434,-104.98,-594.238,-4.883,0,0
1586465082,-50.293,-88.867,-531.738,-9.766,0,0
1586465082,-7.324,-83.984,-475.098,-16.113,0,0
1586465082,0,-91.797,-489.258,-23.926,0,0
1586465082,-29.785,-89.355,-641.113,-18.066,0,0
1586465082,-48.34,-86.426,-486.816,7.812,0,0
1586465082,-50.293,-99.121,-359.863,9.766,0,0
1586465082,8.789,-96.191,-503.906,0.488,0,0
1586465082,46.387,-89.355,-592.773,-18.555,0,0
1586465082,3.906,-92.285,-468.262,-16.602,0,0
1586465082,-54.199,-90.332,-450.684,17.09,0,0
1586465082,-91.797,-99.609,-519.043,-3.906,0,0
1586465082,-42.969,-112.793,-554.199,-39.551,0,0
1586465082,40.039,-98.633,-573.73,-32.715,0,0
1586465082,35.156,-82.031,-492.676,-24.414,0,0
1586465082,-16.602,-89.844,-603.516,9.766,0,0
1586465082,2.93,-86.426,-681.641,0.488,0,0
1586465082,-42.969,-84.473,-495.117,-33.203,0,0
1586465082,-76.66,-84.473,-468.262,5.859,0,0
1586465082,-24.414,-81.543,-508.301,22.949,0,0
1586465082,3.906,-86.426,-508.301,-14.16,0,0
1586465082,22.461,-85.938,-579.102,-30.762,0,0
1586465082,-18.066,-96.68,-589.355,17.578,0,0
1586465082,-44.922,-97.656,-494.141,22.461,0,0
1586465082,-29.785,-85.449,-514.16,-7.324,0,0
1586465082,10.742,-85.938,-638.672,-30.762,0,0
1586465082,39.551,-81.055,-628.418,-40.527,0,0
1586465082,18.066,-74.707,-619.629,3.418,0,0
1586465082,17.09,-73.73,-534.668,15.137,0,0
1586465082,-8.789,-84.473,-511.23,-16.113,0,0
1586465082,-38.574,-88.379,-605.469,0.488,0,0
1586465082,-90.82,-84.961,-573.242,42.48,0,0
1586465082,-67.871,-79.102,-452.148,30.762,0,0
1586465082,30.273,-78.613,-512.207,-28.32,0,0
1586465082,9.277,-96.191,-625.977,-49.805,0,0
1586465082,-51.27,-105.469,-573.73,20.02,0,0
1586465082,-67.383,-95.215,-500.488,47.363,0,0
1586465082,-29.297,-93.75,-577.148,-4.395,0,0
1586465082,26.855,-97.168,-756.836,-46.387,0,0
1586465082,10.254,-90.332,-715.82,-16.602,0,0
1586465082,-75.195,-94.727,-487.793,29.785,0,0
1586465082,-83.008,-91.797,-570.312,17.578,0,0
1586465082,0.488,-84.473,-642.578,3.906,0,0
1586465082,33.691,-80.078,-558.594,5.371,0,0
1586465083,-17.09,-81.055,-473.633,0,0,0
1586465083,-1.953,-89.355,-522.461,-17.578,0,0
1586465083,88.867,-83.984,-617.676,-45.41,0,0
1586465083,3.906,-81.543,-580.078,-32.227,0,0
1586465083,-92.773,-86.914,-534.668,-6.348,0,0
1586465083,-33.203,-86.426,-583.008,-7.324,0,0
1586465083,21.973,-84.473,-666.016,-23.926,0,0
1586465083,33.203,-84.961,-640.625,-47.852,0,0
1586465083,-47.852,-88.379,-512.695,-0.977,0,0
1586465083,-111.816,-93.75,-562.988,23.438,0,0
1586465083,-45.898,-87.891,-620.117,-27.832,0,0
1586465083,43.945,-89.355,-624.023,-69.336,0,0
1586465083,19.043,-101.074,-657.227,-19.043,0,0
1586465083,-86.426,-103.516,-640.625,19.531,0,0
1586465083,-42.48,-93.75,-621.094,-8.301,0,0
1586465083,-7.812,-83.496,-618.652,-29.297,0,0
1586465083,-42.969,-82.031,-613.77,-13.184,0,0
1586465083,-55.176,-86.426,-687.988,15.625,0,0
1586465083,-3.906,-86.914,-702.148,11.23,0,0
1586465083,106.445,-78.125,-610.352,-22.461,0,0
1586465083,45.898,-82.52,-677.734,-42.48,0,0
1586465083,-129.395,-96.68,-681.641,-5.371,0,0
1586465083,-92.773,-90.332,-605.469,-2.441,0,0
1586465083,17.578,-77.148,-601.074,-55.664,0,0
1586465083,-50.293,-78.613,-688.965,-83.984,0,0
1586465083,-93.75,-72.754,-705.078,-57.617,0,0
1586465083,8.301,-52.734,-629.395,-68.359,0,0
1586465083,-9.277,-59.082,-614.746,-92.773,0,0
1586465083,-110.84,-81.055,-690.43,-83.008,0,0
1586465083,-87.402,-70.312,-700.195,-58.105,0,0
1586465083,-74.707,-47.363,-587.402,-51.758,0,0
1586465083,-50.781,-49.316,-552.734,-55.664,0,0
1586465083,7.812,-61.035,-678.223,-83.496,0,0
1586465083,-13.184,-69.824,-732.422,-78.613,0,0
1586465083,-31.738,-68.848,-578.125,-33.203,0,0
1586465083,16.602,-60.059,-535.156,-40.039,0,0
1586465083,40.527,-63.477,-688.477,-63.965,0,0
1586465083,41.504,-65.918,-712.891,-38.574,0,0
1586465083,41.016,-60.547,-546.387,-18.066,0,0
1586465083,7.812,-61.035,-517.578,-31.738,0,0
1586465083,-11.23,-71.777,-600.098,-25.391,0,0
1586465083,20.508,-74.219,-693.848,-43.945,0,0
1586465083,2.441,-68.848,-622.559,-27.832,0,0
1586465083,-8.789,-63.477,-530.762,-4.883,0,0
1586465083,13.672,-72.754,-668.945,-1.465,0,0
1586465083,36.133,-86.426,-759.766,2.93,0,0
1586465083,20.02,-77.148,-547.852,-23.438,0,0
1586465083,-18.066,-59.082,-519.043,-15.625,0,0
1586465083,1.953,-55.176,-586.426,19.531,0,0
1586465083,34.18,-72.266,-645.508,-0.977,0,0
1586465083,12.695,-85.449,-599.121,-16.113,0,0
1586465083,-42.48,-80.566,-524.902,2.93,0,0
1586465083,-20.996,-76.172,-545.898,-7.812,0,0
1586465083,32.715,-75.684,-611.816,-14.16,0,0
1586465083,44.922,-72.266,-607.422,-20.508,0,0
1586465083,-1.953,-73.73,-543.945,-14.16,0,0
1586465083,-28.32,-75.195,-614.258,-3.418,0,0
1586465083,13.184,-69.336,-562.988,-12.207,0,0
1586465083,55.664,-66.406,-513.672,-30.273,0,0
1586465083,25.391,-65.918,-543.457,-19.043,0,0
1586465083,-33.203,-67.871,-519.531,8.789,0,0
1586465083,-9.766,-71.289,-425.293,5.859,0,0
1586465083,35.645,-76.172,-481.934,0.488,0,0
1586465083,10.254,-71.289,-500,-7.812,0,0
1586465083,-31.738,-63.965,-471.191,-2.93,0,0
1586465083,3.906,-64.453,-509.766,-9.766,0,0
1586465083,63.965,-62.5,-573.73,-54.199,0,0
1586465083,-5.371,-70.801,-696.777,-34.18,0,0
1586465083,-82.52,-74.219,-687.988,2.93,0,0
1586465083,-54.199,-62.5,-431.152,-10.742,0,0
1586465083,16.602,-56.641,-472.168,-52.246,0,0
1586465083,44.434,-56.641,-581.543,-30.273,0,0
1586465083,-41.016,-67.383,-523.438,29.785,0,0
1586465083,-53.711,-67.871,-500.977,0.488,0,0
1586465083,-2.441,-59.082,-537.598,-27.344,0,0
1586465083,-10.254,-57.617,-534.668,-23.438,0,0
1586465083,-43.945,-58.594,-506.348,-26.855,0,0
1586465083,-62.988,-61.523,-511.23,-46.875,0,0
1586465083,-61.523,-70.312,-497.07,-41.504,0,0
1586465083,-41.504,-76.66,-588.867,-39.551,0,0
1586465083,-96.68,-70.801,-513.672,-46.875,0,0
1586465083,-173.828,-77.637,-423.828,3.906,0,0
1586465083,-159.18,-88.867,-555.664,1.953,0,0
1586465083,-61.035,-86.914,-647.461,-56.641,0,0
1586465083,-40.039,-79.102,-523.926,-36.133,0,0
1586465083,-88.379,-73.73,-476.562,-20.508,0,0
1586465083,-54.199,-75.195,-577.637,-13.672,0,0
1586465083,-21.973,-83.496,-659.668,-13.184,0,0
1586465083,-20.996,-86.914,-648.926,-38.574,0,0
1586465083,-42.48,-80.566,-606.445,-30.273,0,0
1586465083,-67.871,-81.055,-693.848,-8.301,0,0
1586465083,-28.32,-84.961,-741.211,15.625,0,0
1586465083,-3.906,-89.844,-570.801,8.301,0,0
1586465083,-20.508,-85.938,-553.711,-8.789,0,0
1586465083,-19.043,-82.031,-587.402,14.16,0,0
1586465083,1.465,-82.52,-516.113,12.207,0,0
1586465083,22.461,-82.031,-564.453,-7.324,0,0
1586465083,-13.672,-89.355,-646.973,11.719,0,0
1586465083,-41.504,-97.168,-560.059,20.996,0,0
1586465083,-11.23,-93.262,-483.398,24.414,0,0
1586465083,39.062,-90.82,-561.035,42.48,0,0
1586465083,63.477,-95.215,-616.699,81.543,0,0
1586465083,41.016,-95.703,-708.008,102.539,0,0
1586465083,47.852,-95.215,-644.043,86.914,0,0
1586465083,106.934,-92.773,-433.594,64.453,0,0
1586465083,132.812,-95.215,-543.457,75.684,0,0
1586465083,85.938,-101.074,-578.613,109.375,0,0
1586465083,60.059,-98.633,-435.547,84.961,0,0
1586465083,89.355,-95.215,-384.277,121.582,0,0
1586465083,94.238,-105.957,-543.457,173.828,0,0
1586465083,73.242,-106.934,-567.383,127.93,0,0
1586465083,50.293,-103.027,-393.555,97.168,0,0
1586465083,76.66,-105.469,-389.648,124.512,0,0
1586465083,140.137,-103.516,-577.637,149.414,0,0
1586465083,139.648,-96.68,-562.012,154.785,0,0
1586465083,90.332,-92.773,-250.977,158.203,0,0
1586465083,82.031,-92.285,-211.426,163.574,0,0
1586465083,126.953,-85.449,-331.543,176.27,0,0
1586465083,130.859,-79.102,-279.297,192.383,0,0
1586465083,66.406,-81.543,69.336,189.941,0,0
1586465083,48.828,-81.055,216.797,170.41,0,0
1586465083,104.004,-74.707,7.812,166.016,0,0
1586465083,160.156,-64.941,83.008,156.738,0,0
1586465083,147.461,-62.012,266.113,173.34,0,0
1586465083,24.902,-62.012,200.195,182.617,0,0
1586465083,-2.441,-59.57,19.043,167.969,0,0
1586465083,67.871,-58.105,19.043,164.062,0,0
1586465083,41.504,-51.758,207.52,128.906,0,0
1586465083,20.02,-52.734,168.457,94.238,0,0
1586465083,43.945,-56.152,-18.555,94.727,0,0
1586465083,85.938,-50.781,61.523,89.844,0,0
1586465083,100.586,-49.805,212.402,107.91,0,0
1586465083,12.207,-50.293,54.688,111.816,0,0
1586465083,-26.855,-49.316,-217.285,52.734,0,0
1586465083,44.434,-46.387,-6.836,38.574,0,0
1586465083,63.477,-43.945,176.27,45.41,0,0
1586465083,10.742,-47.363,-42.969,45.898,0,0
1586465083,-2.441,-42.969,-326.66,37.598,0,0
1586465083,21.973,-30.273,-281.738,18.555,0,0
1586465083,42.48,-24.414,15.625,26.855,0,0
1586465083,30.762,-25.391,-152.832,17.09,0,0
1586465083,-15.625,-26.367,-266.113,20.02,0,0
1586465083,-18.066,-18.555,206.543,26.855,0,0
1586465083,-3.418,-14.648,202.637,5.371,0,0
1586465083,-32.227,-21.973,190.918,31.25,0,0
1586465083,-70.312,-30.273,224.121,2.441,0,0
1586465083,-55.176,-31.25,250.977,-29.785,0,0
1586465083,-34.18,-39.062,279.297,2.93,0,0
1586465083,-42.969,-45.41,252.441,-6.836,0,0
1586465083,-53.711,-43.457,247.559,-47.363,0,0
1586465083,-90.82,-49.805,333.008,-57.617,0,0
1586465083,-68.359,-50.781,383.789,-24.902,0,0
1586465083,-39.062,-52.246,211.426,-14.648,0,0
1586465083,-85.449,-54.199,300.293,-55.176,0,0
1586465083,-117.188,-55.664,414.062,-75.195,0,0
1586465083,-74.707,-58.594,307.129,-71.289,0,0
1586465083,-55.664,-56.152,285.156,-45.898,0,0
1586465083,-110.352,-51.758,348.145,-79.59,0,0
1586465083,-127.441,-58.594,355.469,-111.816,0,0
1586465083,-114.746,-63.965,267.578,-83.008,0,0
1586465083,-75.195,-60.059,257.812,-56.152,0,0
1586465083,-83.496,-61.523,282.715,-69.336,0,0
1586465083,-121.094,-63.965,284.668,-124.512,0,0
1586465083,-121.582,-63.965,149.902,-136.719,0,0
1586465083,-103.027,-62.5,142.09,-92.285,0,0
1586465083,-78.613,-57.617,395.996,-69.824,0,0
1586465083,-102.051,-60.547,355.957,-112.793,0,0
1586465083,-150.879,-65.918,310.547,-121.094,0,0
1586465083,-125.977,-61.035,335.449,-86.914,0,0
1586465083,-101.074,-62.012,300.293,-63.477,0,0
1586465083,-139.648,-67.383,257.812,-83.496,0,0
1586465083,-166.016,-60.059,269.043,-160.156,0,0
1586465083,-144.531,-61.523,291.016,-141.602,0,0
1586465083,-104.98,-65.43,231.445,-81.543,0,0
1586465083,-133.301,-66.895,230.957,-87.402,0,0
1586465083,-172.363,-73.242,18.066,-116.699,0,0
1586465083,-161.621,-75.195,93.75,-145.02,0,0
1586465083,-149.414,-86.914,305.176,-133.301,0,0
1586465083,-158.691,-90.82,159.18,-127.441,0,0
1586465083,-180.664,-83.984,145.02,-166.992,0,0
1586465083,-197.266,-87.891,185.547,-153.809,0,0
1586465083,-145.508,-99.121,213.867,-132.324,0,0
1586465083,-127.441,-105.957,-41.992,-153.32,0,0
1586465083,-218.75,-110.84,-222.656,-190.918,0,0
1586465083,-269.043,-130.371,-206.055,-204.102,0,0
1586465083,-227.539,-141.113,-338.379,-168.945,0,0
1586465083,-179.199,-142.578,-507.324,-157.227,0,0
1586465083,-194.824,-144.531,-551.27,-190.918,0,0
1586465083,-229.98,-145.508,-333.496,-224.121,0,0
1586465083,-210.449,-148.926,-384.766,-213.867,0,0
1586465083,-182.617,-145.02,-502.93,-170.898,0,0
1586465083,-190.43,-140.625,-448.242,-176.27,0,0
1586465083,-214.844,-145.02,-453.125,-217.773,0,0
1586465083,-200.195,-152.832,-573.73,-232.422,0,0
1586465083,-179.199,-152.832,-585.449,-183.105,0,0
1586465083,-204.59,-152.344,-495.605,-164.551,0,0
1586465083,-214.355,-151.855,-531.738,-207.52,0,0
1586465083,-211.426,-153.809,-666.016,-216.797,0,0
1586465083,-198.242,-157.227,-658.691,-169.922,0,0
1586465083,-202.637,-152.344,-547.852,-163.086,0,0
1586465083,-242.676,-147.949,-511.23,-208.008,0,0
1586465083,-219.727,-149.414,-619.629,-231.445,0,0
1586465083,-181.641,-157.227,-713.867,-192.383,0,0
1586465083,-178.223,-159.18,-578.125,-160.156,0,0
1586465083,-177.734,-153.809,-522.461,-186.523,0,0
1586465083,-187.5,-149.902,-679.199,-210.938,0,0
1586465083,-174.805,-162.598,-711.426,-194.824,0,0
1586465083,-156.738,-168.945,-624.023,-158.691,0,0
1586465083,-177.246,-158.691,-675.781,-172.852,0,0
1586465083,-179.688,-152.832,-799.805,-222.656,0,0
1586465083,-169.434,-154.785,-776.855,-217.285,0,0
1586465083,-159.18,-155.273,-573.73,-172.852,0,0
1586465083,-159.668,-158.691,-606.934,-168.457,0,0
1586465083,-214.355,-161.621,-662.598,-182.617,0,0
1586465083,-217.773,-158.203,-604.492,-184.082,0,0
1586465083,-171.875,-155.762,-563.965,-148.438,0,0
1586465083,-171.875,-159.668,-572.754,-105.469,0,0
1586465083,-192.383,-160.645,-655.762,-140.137,0,0
1586465083,-204.102,-155.762,-637.695,-172.363,0,0
1586465083,-174.316,-150.391,-541.016,-149.902,0,0
1586465083,-138.672,-146.973,-542.48,-135.742,0,0
1586465083,-148.926,-145.508,-602.539,-154.785,0,0
1586465083,-168.457,-149.902,-578.613,-179.199,0,0
1586465083,-144.531,-154.785,-501.465,-159.668,0,0
1586465083,-126.465,-144.531,-504.883,-112.305,0,0
1586465083,-141.113,-141.113,-572.754,-136.23,0,0
1586465083,-156.738,-145.508,-459.961,-179.199,0,0
1586465083,-163.086,-144.043,-375,-153.32,0,0
1586465083,-127.93,-142.578,-451.66,-133.301,0,0
1586465083,-124.023,-140.625,-463.379,-134.766,0,0
1586465083,-132.324,-135.254,-361.328,-157.715,0,0
1586465083,-105.469,-134.766,-325.684,-144.531,0,0
1586465083,-108.887,-133.789,-375.977,-112.305,0,0
1586465083,-122.559,-142.09,-438.477,-104.004,0,0
1586465083,-114.258,-140.137,-365.234,-106.445,0,0
1586465083,-121.094,-126.953,-275.391,-126.953,0,0
1586465083,-128.418,-130.371,-448.73,-110.84,0,0
1586465083,-125,-139.648,-531.738,-84.473,0,0
1586465083,-125.488,-137.695,-332.031,-88.379,0,0
1586465083,-133.301,-135.254,-332.031,-100.586,0,0
1586465083,-127.441,-131.836,-361.816,-129.883,0,0
1586465083,-96.68,-125.977,-363.281,-99.121,0,0
1586465083,-85.449,-126.465,-338.379,-74.707,0,0
1586465083,-105.469,-127.441,-325.195,-117.188,0,0
1586465083,-112.305,-127.441,-365.234,-132.812,0,0
1586465083,-65.918,-128.418,-381.836,-75.684,0,0
1586465083,-59.57,-129.395,-305.176,-56.152,0,0
1586465083,-90.332,-121.582,-296.875,-135.742,0,0
1586465083,-87.402,-121.582,-408.691,-154.785,0,0
1586465083,-53.223,-125,-275.879,-93.262,0,0
1586465083,-56.152,-122.559,-114.258,-93.75,0,0
1586465083,-74.219,-121.582,-238.281,-144.531,0,0
1586465083,-74.707,-123.535,-337.402,-132.324,0,0
1586465083,-58.105,-124.512,-270.02,-105.469,0,0
1586465083,-37.109,-119.141,-202.148,-74.219,0,0
1586465083,-43.945,-114.258,-235.352,-84.961,0,0
1586465084,-68.359,-118.164,-279.297,-100.586,0,0
1586465084,-58.105,-130.371,-251.953,-86.426,0,0
1586465084,-47.363,-129.883,-274.414,-80.078,0,0
1586465084,-71.289,-126.953,-389.648,-69.336,0,0
1586465084,-95.215,-130.371,-428.223,-86.426,0,0
1586465084,-73.73,-125,-165.039,-91.797,0,0
1586465084,-57.617,-120.117,-225.586,-70.801,0,0
1586465084,-77.637,-120.117,-347.168,-51.27,0,0
1586465084,-78.125,-125.977,-312.988,-83.496,0,0
1586465084,-58.105,-127.441,-368.652,-86.426,0,0
1586465084,-33.691,-123.535,-410.645,-44.922,0,0
1586465084,-47.363,-125,-391.113,-16.113,0,0
1586465084,-77.148,-125,-409.18,-52.734,0,0
1586465084,-92.285,-119.141,-446.289,-108.398,0,0
1586465084,-81.055,-123.047,-450.195,-114.258,0,0
1586465084,-71.777,-127.93,-530.273,-92.285,0,0
1586465084,-92.285,-124.512,-489.746,-99.121,0,0
1586465084,-112.305,-127.441,-383.789,-110.352,0,0
1586465084,-103.027,-130.371,-450.684,-92.285,0,0
1586465084,-97.168,-133.301,-479.492,-79.59,0,0
1586465084,-103.516,-137.207,-378.418,-79.102,0,0
1586465084,-114.746,-131.348,-368.652,-113.281,0,0
1586465084,-115.723,-138.184,-479.004,-108.887,0,0
1586465084,-94.727,-152.344,-432.617,-81.543,0,0
1586465084,-96.68,-152.344,-352.539,-52.734,0,0
1586465084,-90.82,-148.926,-377.441,-81.543,0,0
1586465084,-106.934,-149.414,-468.262,-125,0,0
1586465084,-106.445,-152.832,-498.535,-73.242,0,0
1586465084,-107.422,-161.133,-148.926,-18.066,0,0
1586465084,-108.887,-165.527,94.727,-16.602,0,0
1586465084,-93.262,-158.203,37.598,-39.551,0,0
1586465084,-85.938,-150.879,30.273,-62.5,0,0
1586465084,-73.73,-154.297,203.613,-47.363,0,0
1586465084,-65.43,-156.738,64.941,-4.395,0,0
1586465084,-98.633,-151.855,-196.289,-52.734,0,0
1586465084,-72.266,-150.879,-93.75,-81.055,0,0
1586465084,-109.375,-150.879,-351.074,-106.934,0,0
1586465084,-244.629,-150.879,-855.469,-181.152,0,0
1586465084,-234.375,-147.461,-861.328,-190.43,0,0
1586465084,-184.57,-135.742,-783.691,-145.508,0,0
1586465084,-144.531,-137.695,-731.445,-95.703,0,0
1586465084,-134.766,-142.09,-792.969,-68.848,0,0
1586465084,-129.395,-140.625,-844.238,-66.895,0,0
1586465084,-104.98,-140.625,-717.285,-99.609,0,0
1586465084,-86.426,-132.324,-593.262,-71.777,0,0
1586465084,-96.191,-127.441,-673.34,-28.809,0,0
1586465084,-81.055,-125.977,-711.426,-37.598,0,0
1586465084,-69.336,-120.605,-553.711,-47.852,0,0
1586465084,-69.824,-131.348,-486.328,-28.32,0,0
1586465084,-66.406,-133.789,-671.387,25.879,0,0
1586465084,-62.988,-113.77,-693.848,10.254,0,0
1586465084,-37.598,-104.492,-484.863,-50.781,0,0
1586465084,-35.645,-107.422,-504.883,-45.898,0,0
1586465084,-48.34,-106.934,-531.25,-4.395,0,0
1586465084,-38.574,-103.027,-513.672,-5.859,0,0
1586465084,-23.438,-103.516,-492.676,-42.969,0,0
1586465084,-12.695,-108.887,-545.898,-60.059,0,0
1586465084,-18.555,-112.305,-670.41,-15.137,0,0
1586465084,-34.668,-112.305,-733.887,60.547,0,0
1586465084,-27.832,-105.469,-730.957,59.57,0,0
1586465084,-29.785,-96.191,-734.375,0,0,0
1586465084,-18.555,-91.309,-792.48,-52.734,0,0
1586465084,-7.812,-87.402,-753.906,-52.246,0,0
1586465084,12.207,-80.078,-651.855,-62.012,0,0
1586465084,14.16,-76.66,-671.387,-67.383,0,0
1586465084,7.812,-86.426,-714.844,-32.227,0,0
1586465084,10.254,-88.867,-603.516,21.484,0,0
1586465084,9.766,-87.891,-511.23,39.062,0,0
1586465084,20.02,-90.332,-563.965,2.441,0,0
1586465084,17.578,-85.449,-607.91,-12.207,0,0
1586465084,21.973,-74.707,-457.52,49.316,0,0
1586465084,11.23,-75.195,-386.719,28.809,0,0
1586465084,18.066,-90.332,-456.543,-18.066,0,0
1586465084,41.504,-82.031,-480.469,20.996,0,0
1586465084,2.93,-68.359,-381.836,45.898,0,0
1586465084,-33.691,-68.359,-261.23,-0.488,0,0
1586465084,-33.203,-67.871,-453.613,-23.926,0,0
1586465084,-40.039,-64.941,-525.879,3.418,0,0
1586465084,-20.508,-69.336,-271.484,20.996,0,0
1586465084,-45.898,-78.125,-387.207,21.973,0,0
1586465084,-79.59,-78.125,-508.301,-45.898,0,0
1586465084,-51.27,-82.031,-557.129,-83.008,0,0
1586465084,-54.199,-81.543,-577.637,-67.871,0,0
1586465084,-105.469,-85.938,-570.312,-37.598,0,0
1586465084,-98.633,-83.008,-626.953,-58.594,0,0
1586465084,-51.758,-74.219,-642.09,-104.98,0,0
1586465084,-49.805,-75.195,-559.57,-74.219,0,0
1586465084,-60.059,-74.219,-538.574,-8.789,0,0
1586465084,-61.523,-76.66,-603.027,7.812,0,0
1586465084,-51.758,-75.195,-460.449,-8.301,0,0
1586465084,-36.621,-63.477,-350.586,-4.883,0,0
1586465084,-35.645,-65.43,-455.566,22.949,0,0
1586465084,-49.316,-71.289,-493.652,49.805,0,0
1586465084,-39.551,-75.195,-385.254,18.555,0,0
1586465084,-3.418,-71.777,-332.52,-34.18,0,0
1586465084,-10.742,-63.477,-467.773,-22.949,0,0
1586465084,-48.34,-66.406,-574.707,9.766,0,0
1586465084,-33.691,-62.988,-442.871,-6.836,0,0
1586465084,-3.906,-62.012,-391.602,-35.645,0,0
1586465084,11.719,-65.918,-540.039,-39.551,0,0
1586465084,-12.695,-62.988,-589.844,2.93,0,0
1586465084,-29.785,-63.965,-339.844,43.945,0,0
1586465084,0,-67.871,-407.227,13.184,0,0
1586465084,17.578,-64.941,-506.836,-16.113,0,0
1586465084,20.508,-63.965,-434.57,-10.742,0,0
1586465084,1.465,-69.336,-508.301,8.301,0,0
1586465084,1.465,-65.43,-591.797,5.371,0,0
1586465084,22.949,-60.547,-555.176,16.113,0,0
1586465084,14.648,-56.641,-507.324,27.832,0,0
1586465084,-18.555,-53.711,-559.082,24.902,0,0
1586465084,12.207,-53.223,-584.473,35.645,0,0
1586465084,43.945,-53.223,-626.465,-7.324,0,0
1586465084,34.18,-56.152,-541.992,-10.742,0,0
1586465084,3.418,-60.547,-420.41,36.621,0,0
1586465084,33.691,-61.035,-483.887,14.16,0,0
1586465084,75.684,-61.523,-500.488,-44.922,0,0
1586465084,53.711,-60.059,-394.531,-37.598,0,0
1586465084,19.043,-61.523,-384.766,18.555,0,0
1586465084,-10.742,-63.477,-517.578,27.832,0,0
1586465084,15.137,-60.547,-484.863,28.32,0,0
1586465084,60.059,-61.035,-365.234,26.855,0,0
1586465084,33.691,-64.941,-439.453,52.246,0,0
1586465084,-22.461,-65.43,-599.121,57.129,0,0
1586465084,10.254,-64.453,-657.227,18.555,0,0
1586465084,51.27,-62.012,-447.266,3.906,0,0
1586465084,25.879,-62.988,-417.969,46.387,0,0
1586465084,-16.113,-60.059,-502.441,68.848,0,0
1586465084,3.906,-61.035,-480.957,32.227,0,0
1586465084,38.574,-65.43,-422.852,18.555,0,0
1586465084,38.086,-63.477,-476.562,36.133,0,0
1586465084,-10.742,-65.918,-499.512,37.598,0,0
1586465084,-25.879,-65.918,-413.086,-12.207,0,0
1586465084,25.391,-65.43,-416.016,-1.953,0,0
1586465084,26.855,-75.684,-437.988,8.301,0,0
1586465084,-13.672,-86.426,-538.086,-0.977,0,0
1586465084,-33.691,-85.938,-477.539,17.578,0,0
1586465084,-20.02,-83.008,-298.828,12.207,0,0
1586465084,14.648,-95.703,-365.234,-4.395,0,0
1586465084,5.859,-105.469,-388.672,-21.973,0,0
1586465084,-35.645,-95.703,-292.48,-18.555,0,0
1586465084,-17.09,-100.586,-284.18,-0.977,0,0
1586465084,-4.883,-114.258,-372.07,4.395,0,0
1586465084,-28.809,-119.629,-413.086,-18.066,0,0
1586465084,-71.289,-121.582,-329.102,-9.766,0,0
1586465084,-67.383,-124.023,-332.52,-0.488,0,0
1586465084,-17.578,-132.324,-519.531,-34.668,0,0
1586465084,-8.789,-140.625,-570.801,-60.547,0,0
1586465084,-59.57,-137.207,-384.277,-50.781,0,0
1586465084,-85.449,-132.324,-478.027,-41.992,0,0
1586465084,-31.25,-127.441,-540.039,-63.477,0,0
1586465084,-12.695,-126.465,-507.812,-64.941,0,0
1586465084,-38.574,-131.836,-541.504,-29.785,0,0
1586465084,-53.711,-136.719,-615.723,-21.484,0,0
1586465084,-37.109,-139.648,-718.75,-35.156,0,0
1586465084,11.719,-135.742,-687.012,-52.734,0,0
1586465084,-6.836,-133.789,-628.906,-74.219,0,0
1586465084,-70.801,-140.625,-737.305,-41.504,0,0
1586465084,-46.875,-138.672,-812.5,-49.316,0,0
1586465084,9.277,-135.742,-767.09,-63.965,0,0
1586465084,6.348,-139.16,-766.602,-42.48,0,0
1586465084,-41.016,-137.207,-850.586,-24.414,0,0
1586465084,-34.668,-133.301,-901.855,-10.742,0,0
1586465084,18.066,-125.488,-871.582,13.672,0,0
1586465084,27.344,-121.582,-892.09,-16.113,0,0
1586465084,-16.113,-115.234,-932.129,-65.918,0,0
1586465084,-10.254,-107.422,-944.336,-75.195,0,0
1586465084,9.766,-105.469,-903.809,-87.891,0,0
1586465084,20.508,-104.492,-899.902,-87.891,0,0
1586465084,8.789,-103.516,-926.758,-48.828,0,0
1586465084,-25.391,-104.004,-962.402,-9.277,0,0
1586465084,0,-97.168,-950.195,-26.367,0,0
1586465084,15.625,-91.797,-911.621,-47.852,0,0
1586465084,-1.953,-90.82,-956.055,-31.25,0,0
1586465084,-33.691,-86.914,-983.887,-3.418,0,0
1586465084,-25.391,-80.566,-918.457,-3.906,0,0
1586465084,-0.977,-81.055,-928.223,-63.965,0,0
1586465084,-3.418,-75.684,-953.613,-86.914,0,0
1586465084,-38.574,-71.289,-945.801,-27.344,0,0
1586465084,-36.133,-69.824,-962.402,-15.137,0,0
1586465084,19.043,-68.359,-952.148,-44.434,0,0
1586465084,32.715,-68.848,-946.289,-55.664,0,0
1586465084,2.441,-65.918,-965.332,-25.391,0,0
1586465084,-23.926,-62.012,-936.523,27.344,0,0
1586465084,-7.324,-67.383,-930.664,3.906,0,0
1586465084,21.484,-67.871,-936.035,-28.32,0,0
1586465084,20.02,-59.57,-908.691,-12.695,0,0
1586465084,-6.348,-55.664,-879.395,-25.879,0,0
1586465084,36.133,-47.363,-929.199,-59.082,0,0
1586465084,84.473,-43.457,-942.871,-85.449,0,0
1586465084,45.41,-41.992,-857.422,-55.176,0,0
1586465084,20.02,-36.621,-834.473,-20.996,0,0
1586465084,39.551,-34.18,-852.539,-3.418,0,0
1586465084,69.824,-26.367,-868.652,1.953,0,0
1586465084,56.152,-15.625,-854.98,18.555,0,0
1586465084,22.461,-16.602,-823.242,28.809,0,0
1586465084,31.25,-17.09,-891.113,33.691,0,0
1586465084,64.453,-11.719,-885.742,13.184,0,0
1586465084,83.496,-5.371,-719.727,14.648,0,0
1586465084,68.359,-1.465,-725.098,57.129,0,0
1586465084,48.34,0.977,-750,68.359,0,0
1586465084,74.219,3.906,-695.312,42.48,0,0
1586465084,91.797,7.324,-720.215,13.184,0,0
1586465084,79.59,9.277,-728.027,50.293,0,0
1586465084,60.547,3.418,-645.508,119.141,0,0
1586465084,89.355,2.441,-626.953,93.262,0,0
1586465084,109.375,3.906,-660.645,12.695,0,0
1586465084,90.332,4.883,-630.859,10.742,0,0
1586465084,83.008,8.301,-660.645,53.223,0,0
1586465084,96.68,11.23,-653.32,51.758,0,0
1586465084,90.332,10.254,-551.758,35.645,0,0
1586465084,95.703,8.301,-536.133,66.895,0,0
1586465084,105.469,14.648,-537.109,95.703,0,0
1586465084,96.191,11.23,-435.547,56.152,0,0
1586465084,110.84,4.883,-408.691,34.18,0,0
1586465084,121.094,5.859,-481.934,49.805,0,0
1586465084,113.281,3.906,-475.586,63.965,0,0
1586465084,88.379,-3.906,-382.812,109.375,0,0
1586465084,114.746,5.859,-465.82,106.934,0,0
1586465084,139.648,16.602,-581.543,88.867,0,0
1586465084,106.445,12.207,-540.039,58.594,0,0
1586465084,90.82,10.742,-274.414,44.922,0,0
1586465084,81.055,6.836,-257.812,74.219,0,0
1586465084,117.676,5.371,-293.457,59.57,0,0
1586465084,140.625,6.836,-294.434,57.617,0,0
1586465084,74.707,8.301,-25.879,115.234,0,0
1586465084,87.402,9.277,165.527,83.008,0,0
1586465084,116.211,11.23,154.297,39.062,0,0
1586465084,83.496,8.789,278.32,49.805,0,0
1586465084,52.246,4.395,324.219,82.031,0,0
1586465084,29.785,4.395,353.516,74.707,0,0
1586465084,64.453,3.906,262.207,30.762,0,0
1586465084,80.078,-5.371,381.348,-14.16,0,0
1586465084,31.738,-19.043,579.102,0.977,0,0
1586465084,-16.602,-40.527,572.754,49.805,0,0
1586465084,-30.762,-65.918,596.68,22.949,0,0
1586465084,-51.27,-89.844,643.066,-9.277,0,0
1586465084,-67.383,-108.398,679.199,-103.516,0,0
1586465084,-153.32,-141.113,650.879,-182.129,0,0
1586465084,-221.68,-187.012,614.746,-182.617,0,0
1586465084,-232.422,-219.727,666.016,-227.051,0,0
1586465084,-284.668,-259.766,714.355,-254.395,0,0
1586465084,-362.305,-308.105,624.023,-258.301,0,0
1586465084,-408.203,-350.586,617.188,-308.594,0,0
1586465084,-424.805,-386.23,713.867,-380.371,0,0
1586465084,-460.449,-414.551,720.703,-424.316,0,0
1586465084,-524.902,-451.66,697.266,-430.176,0,0
1586465084,-587.402,-495.117,726.074,-480.469,0,0
1586465084,-602.051,-526.855,760.254,-597.656,0,0
1586465084,-631.348,-553.223,746.094,-634.277,0,0
1586465084,-662.598,-573.242,749.512,-621.094,0,0
1586465084,-700.684,-586.914,796.875,-609.375,0,0
1586465084,-692.383,-606.934,786.621,-644.531,0,0
1586465084,-674.805,-623.047,734.863,-669.922,0,0
1586465084,-691.895,-629.883,699.707,-639.16,0,0
1586465084,-696.777,-634.766,682.617,-612.793,0,0
1586465084,-689.453,-637.207,681.641,-660.156,0,0
1586465085,-693.359,-633.301,647.949,-710.938,0,0
1586465085,-693.359,-627.93,591.797,-699.219,0,0
1586465085,-703.125,-618.164,649.902,-661.621,0,0
1586465085,-677.734,-608.887,661.621,-664.062,0,0
1586465085,-636.23,-598.633,552.734,-675.781,0,0
1586465085,-629.883,-584.473,518.555,-667.48,0,0
1586465085,-604.004,-571.289,544.434,-615.723,0,0
1586465085,-608.887,-560.547,514.648,-580.566,0,0
1586465085,-605.957,-550.293,363.77,-601.074,0,0
1586465085,-554.688,-537.598,255.371,-629.395,0,0
1586465085,-534.668,-514.648,315.918,-590.332,0,0
1586465085,-537.598,-494.629,395.508,-531.738,0,0
1586465085,-509.277,-480.469,-59.57,-541.992,0,0
1586465085,-470.215,-459.961,-353.516,-534.668,0,0
1586465085,-454.59,-438.477,91.309,-483.398,0,0
1586465085,-456.055,-422.852,166.992,-429.688,0,0
1586465085,-439.453,-410.156,-187.988,-427.734,0,0
1586465085,-415.527,-400.879,-450.684,-443.359,0,0
1586465085,-381.836,-383.789,-401.855,-435.059,0,0
1586465085,-364.258,-355.957,-343.262,-395.508,0,0
1586465085,-360.84,-333.008,-441.895,-360.84,0,0
1586465085,-319.336,-318.848,-628.906,-387.207,0,0
1586465085,-288.086,-302.246,-571.777,-388.672,0,0
1586465085,-314.453,-281.25,-466.309,-353.516,0,0
1586465085,-315.918,-264.16,-548.828,-318.848,0,0
1586465085,-286.133,-249.023,-509.766,-338.867,0,0
1586465085,-277.832,-235.84,-425.293,-371.094,0,0
1586465085,-254.395,-226.562,-473.145,-317.383,0,0
1586465085,-249.512,-214.355,-397.461,-268.555,0,0
1586465085,-257.324,-207.031,-337.891,-296.387,0,0
1586465085,-243.164,-197.266,-350.586,-330.078,0,0
1586465085,-227.539,-178.223,-344.727,-287.109,0,0
1586465085,-224.121,-160.645,-67.871,-231.934,0,0
1586465085,-228.516,-147.949,168.457,-255.371,0,0
1586465085,-234.375,-140.625,-35.156,-295.41,0,0
1586465085,-224.121,-133.301,-84.473,-284.18,0,0
1586465085,-222.168,-123.047,73.73,-238.77,0,0
1586465085,-215.332,-107.91,375,-248.535,0,0
1586465085,-212.891,-104.492,309.57,-274.902,0,0
1586465085,-225.098,-100.098,310.547,-284.18,0,0
1586465085,-205.078,-79.59,434.57,-265.625,0,0
1586465085,-213.379,-72.754,414.062,-263.672,0,0
1586465085,-254.395,-77.148,316.895,-281.25,0,0
1586465085,-279.785,-74.219,345.215,-279.785,0,0
1586465085,-258.789,-56.152,460.938,-260.254,0,0
1586465085,-230.957,-41.504,493.164,-246.094,0,0
1586465085,-239.258,-39.062,433.594,-277.344,0,0
1586465085,-259.766,-41.016,394.043,-298.34,0,0
1586465085,-259.277,-34.18,505.859,-286.133,0,0
1586465085,-222.656,-25.879,608.398,-269.043,0,0
1586465085,-244.629,-24.902,572.266,-274.414,0,0
1586465085,-305.664,-28.32,323.242,-311.035,0,0
1586465085,-288.574,-26.367,386.719,-321.777,0,0
1586465085,-261.719,-15.137,631.836,-270.508,0,0
1586465085,-285.645,-11.719,517.09,-289.551,0,0
1586465085,-304.688,-10.254,445.312,-360.352,0,0
1586465085,-274.902,-1.953,478.516,-365.234,0,0
1586465085,-264.16,5.371,516.602,-313.965,0,0
1586465085,-280.273,1.465,381.348,-295.41,0,0
1586465085,-291.016,1.465,313.477,-350.098,0,0
1586465085,-307.617,15.137,458.984,-369.629,0,0
1586465085,-298.34,17.09,491.211,-337.402,0,0
1586465085,-305.664,15.137,510.742,-320.801,0,0
1586465085,-327.148,21.973,482.422,-351.562,0,0
1586465085,-338.867,21.973,435.547,-390.137,0,0
1586465085,-327.637,14.16,374.023,-388.184,0,0
1586465085,-313.965,13.184,426.27,-323.73,0,0
1586465085,-335.449,8.301,441.406,-332.52,0,0
1586465085,-374.512,0.977,282.227,-395.508,0,0
1586465085,-370.117,-2.93,226.074,-391.602,0,0
1586465085,-339.355,1.953,157.715,-341.309,0,0
1586465085,-346.191,6.348,255.859,-325.684,0,0
1586465085,-385.254,6.348,328.613,-371.582,0,0
1586465085,-399.902,-0.977,206.543,-392.578,0,0
1586465085,-364.746,-3.418,313.477,-379.395,0,0
1586465085,-348.633,5.859,420.41,-360.352,0,0
1586465085,-388.184,-0.977,359.863,-390.625,0,0
1586465085,-408.691,-3.906,180.664,-419.434,0,0
1586465085,-385.742,9.277,229.004,-404.785,0,0
1586465085,-357.422,12.695,388.672,-353.516,0,0
1586465085,-375,18.555,343.262,-366.699,0,0
1586465085,-412.109,19.043,-24.902,-438.965,0,0
1586465085,-388.184,18.555,-152.832,-439.941,0,0
1586465085,-349.121,25.391,264.16,-365.234,0,0
1586465085,-365.723,24.414,312.012,-360.84,0,0
1586465085,-409.18,23.926,15.625,-408.203,0,0
1586465085,-415.527,25.391,-12.695,-395.508,0,0
1586465085,-369.629,10.742,276.367,-346.68,0,0
1586465085,-366.211,8.789,258.301,-326.172,0,0
1586465085,-406.738,24.902,-104.98,-386.23,0,0
1586465085,-415.039,27.832,-263.184,-415.039,0,0
1586465085,-381.836,22.461,138.672,-372.07,0,0
1586465085,-345.703,26.367,252.93,-332.52,0,0
1586465085,-372.07,23.926,-112.793,-365.234,0,0
1586465085,-412.109,19.043,-329.102,-407.227,0,0
1586465085,-364.258,24.902,-113.281,-375.977,0,0
1586465085,-343.75,21.484,175.781,-316.406,0,0
1586465085,-365.234,18.555,20.508,-328.125,0,0
1586465085,-384.766,26.367,-192.871,-384.766,0,0
1586465085,-380.371,27.832,-70.801,-372.07,0,0
1586465085,-319.824,22.461,129.883,-312.988,0,0
1586465085,-298.34,16.113,143.066,-320.801,0,0
1586465085,-361.328,16.602,123.535,-386.719,0,0
1586465085,-370.605,22.461,21.973,-386.23,0,0
1586465085,-309.57,30.762,65.918,-337.891,0,0
1586465085,-305.664,23.926,-48.828,-320.312,0,0
1586465085,-343.262,23.926,52.246,-353.516,0,0
1586465085,-348.633,34.18,276.367,-378.418,0,0
1586465085,-315.43,37.598,125.977,-338.379,0,0
1586465085,-300.781,44.922,177.734,-311.523,0,0
1586465085,-342.285,47.363,346.191,-328.613,0,0
1586465085,-368.164,43.457,232.91,-356.445,0,0
1586465085,-343.75,46.387,151.855,-351.562,0,0
1586465085,-293.457,51.27,262.207,-306.152,0,0
1586465085,-309.57,53.711,335.449,-304.199,0,0
1586465085,-360.84,55.664,211.914,-340.332,0,0
1586465085,-327.148,67.383,125.488,-345.703,0,0
1586465085,-270.02,81.543,233.887,-296.875,0,0
1586465085,-271.484,82.52,318.359,-282.227,0,0
1586465085,-326.172,80.566,230.957,-345.703,0,0
1586465085,-353.027,82.031,-63.965,-366.699,0,0
1586465085,-307.617,94.238,145.996,-308.594,0,0
1586465085,-303.223,103.027,455.078,-301.758,0,0
1586465085,-356.934,102.539,173.34,-368.652,0,0
1586465085,-388.672,104.004,55.664,-396.973,0,0
1586465085,-343.262,108.887,240.234,-361.328,0,0
1586465085,-301.758,108.398,355.469,-294.922,0,0
1586465085,-320.801,107.91,139.16,-328.613,0,0
1586465085,-345.215,116.211,-169.922,-412.598,0,0
1586465085,-329.59,115.723,-97.168,-382.324,0,0
1586465085,-280.273,123.047,210.938,-320.312,0,0
1586465085,-292.48,134.277,42.969,-311.035,0,0
1586465085,-366.211,123.047,-389.16,-338.867,0,0
1586465085,-337.402,124.023,-274.902,-354.492,0,0
1586465085,-260.742,140.137,99.121,-314.941,0,0
1586465085,-275.391,148.438,233.398,-285.156,0,0
1586465085,-326.66,145.02,120.605,-329.102,0,0
1586465085,-346.191,134.766,-101.074,-347.656,0,0
1586465085,-312.012,137.207,-163.574,-295.41,0,0
1586465085,-266.113,140.137,72.754,-280.273,0,0
1586465085,-302.734,132.812,81.055,-320.801,0,0
1586465085,-332.52,128.906,-236.816,-345.215,0,0
1586465085,-274.902,131.348,-363.281,-288.086,0,0
1586465085,-245.605,126.953,-85.938,-234.863,0,0
1586465085,-274.414,127.441,89.355,-280.762,0,0
1586465085,-300.293,134.766,-101.074,-323.73,0,0
1586465085,-281.738,129.883,-264.16,-299.316,0,0
1586465085,-225.098,132.812,-220.703,-227.539,0,0
1586465085,-213.379,146.484,3.906,-223.633,0,0
1586465085,-258.301,153.809,-54.199,-281.738,0,0
1586465085,-262.207,157.715,-291.504,-285.156,0,0
1586465085,-208.496,151.855,-23.438,-219.238,0,0
1586465085,-198.242,147.461,262.207,-199.707,0,0
1586465085,-248.047,146.484,8.789,-267.09,0,0
1586465085,-269.531,142.578,-383.301,-278.809,0,0
1586465085,-231.445,145.508,-273.438,-224.121,0,0
1586465085,-202.637,140.625,259.766,-187.012,0,0
1586465085,-239.258,137.695,223.633,-248.535,0,0
1586465085,-281.25,146.484,-118.652,-294.922,0,0
1586465085,-235.84,145.508,35.156,-271.484,0,0
1586465085,-184.57,142.09,353.516,-235.84,0,0
1586465085,-218.75,139.16,175.781,-262.207,0,0
1586465085,-258.789,145.02,-170.898,-275.391,0,0
1586465085,-244.629,145.02,-154.297,-250.977,0,0
1586465085,-210.449,145.508,187.5,-249.512,0,0
1586465085,-209.473,146.973,172.363,-233.887,0,0
1586465085,-260.254,149.414,-155.762,-260.742,0,0
1586465085,-259.277,149.414,-296.387,-290.527,0,0
1586465085,-199.219,148.438,-8.789,-236.816,0,0
1586465085,-204.102,150.879,142.09,-212.402,0,0
1586465085,-268.066,149.414,-301.27,-269.531,0,0
1586465085,-271.973,157.715,-483.887,-287.109,0,0
1586465085,-236.816,158.691,-328.125,-256.836,0,0
1586465085,-224.121,141.113,-395.02,-204.59,0,0
1586465085,-247.07,141.602,-618.652,-213.867,0,0
1586465085,-267.09,157.715,-533.203,-272.461,0,0
1586465085,-232.91,158.203,-429.199,-255.859,0,0
1586465085,-181.641,146.484,-518.555,-201.66,0,0
1586465085,-199.219,143.555,-603.516,-211.914,0,0
1586465085,-243.652,152.832,-574.707,-259.766,0,0
1586465085,-233.398,160.645,-504.883,-254.395,0,0
1586465085,-193.359,158.203,-568.359,-205.566,0,0
1586465085,-175.293,161.133,-662.109,-178.223,0,0
1586465085,-195.801,166.016,-579.59,-229.492,0,0
1586465085,-189.453,173.828,-637.695,-266.602,0,0
1586465085,-142.09,176.758,-637.695,-212.402,0,0
1586465085,-135.254,170.898,-564.453,-141.113,0,0
1586465085,-173.828,167.48,-623.047,-190.43,0,0
1586465085,-187.012,161.133,-763.672,-229.492,0,0
1586465085,-126.465,164.062,-778.32,-168.945,0,0
1586465085,-79.59,180.664,-626.953,-124.023,0,0
1586465085,-109.375,185.059,-679.688,-140.137,0,0
1586465085,-138.672,171.875,-857.91,-176.27,0,0
1586465085,-108.398,173.828,-838.867,-152.344,0,0
1586465085,-56.641,172.363,-670.898,-95.215,0,0
1586465085,-51.758,172.363,-607.422,-100.098,0,0
1586465085,-98.633,179.199,-794.434,-131.836,0,0
1586465085,-87.402,174.805,-824.219,-100.586,0,0
1586465085,-23.438,171.387,-582.52,-62.5,0,0
1586465085,-44.922,159.18,-497.559,-69.824,0,0
1586465085,-101.562,145.508,-672.852,-129.883,0,0
1586465085,-102.539,138.184,-776.855,-143.066,0,0
1586465085,-62.988,133.301,-611.328,-98.145,0,0
1586465085,-64.941,125,-430.176,-82.031,0,0
1586465085,-89.844,125,-657.227,-110.84,0,0
1586465085,-112.793,114.258,-811.523,-125.488,0,0
1586465085,-86.914,101.562,-539.551,-93.75,0,0
1586465085,-43.457,104.98,-466.797,-66.406,0,0
1586465085,-67.871,108.398,-624.512,-89.355,0,0
1586465085,-102.051,110.352,-771.484,-114.746,0,0
1586465085,-78.613,109.863,-709.961,-115.723,0,0
1586465085,-36.621,103.027,-567.383,-70.312,0,0
1586465085,-51.27,104.004,-639.16,-63.965,0,0
1586465085,-78.125,113.281,-780.762,-120.605,0,0
1586465085,-70.312,115.234,-724.609,-107.91,0,0
1586465085,-25.391,113.281,-584.473,-47.363,0,0
1586465085,-15.137,102.539,-563.965,-41.016,0,0
1586465085,-75.684,97.656,-638.184,-83.008,0,0
1586465085,-75.195,104.492,-634.277,-89.844,0,0
1586465085,-17.09,91.309,-562.988,-49.805,0,0
1586465085,-22.461,75.684,-554.688,-23.438,0,0
1586465085,-87.891,75.684,-546.387,-54.199,0,0
1586465085,-119.629,75.195,-560.547,-83.984,0,0
1586465085,-89.844,67.871,-657.227,-49.316,0,0
1586465085,-45.41,59.082,-657.715,-21.484,0,0
1586465085,-64.453,52.734,-570.801,-69.824,0,0
1586465085,-121.582,41.504,-615.234,-112.793,0,0
1586465085,-117.676,43.945,-674.316,-98.145,0,0
1586465085,-85.449,46.387,-643.066,-32.715,0,0
1586465085,-98.145,35.645,-437.012,-27.344,0,0
1586465085,-131.836,27.832,-585.938,-110.84,0,0
1586465085,-117.188,37.109,-672.363,-125,0,0
1586465085,-83.008,43.457,-503.906,-61.035,0,0
1586465085,-73.242,40.039,-486.816,-25.391,0,0
1586465085,-85.938,40.039,-663.574,-85.938,0,0
1586465085,-103.027,37.598,-698.73,-99.609,0,0
1586465085,-52.734,35.645,-561.035,-37.109,0,0
1586465085,-8.789,36.133,-501.465,-9.277,0,0
1586465085,-52.246,36.621,-617.676,-21.973,0,0
1586465085,-79.59,34.18,-697.754,-60.547,0,0
1586465085,-43.457,41.016,-519.043,-41.992,0,0
1586465085,7.812,68.359,-365.234,36.621,0,0
1586465085,-3.906,68.359,-482.422,29.785,0,0
1586465085,-52.734,54.199,-639.648,-30.762,0,0
1586465085,-44.922,60.547,-490.234,-6.348,0,0
1586465085,32.227,71.777,-305.176,24.902,0,0
1586465085,8.301,61.035,-448.73,1.465,0,0
1586465085,-74.707,49.316,-626.953,-30.762,0,0
1586465085,-61.035,52.246,-464.355,-50.293,0,0
1586465085,-9.766,56.152,-353.027,-8.789,0,0
1586465085,5.371,55.664,-498.535,47.852,0,0
1586465085,-32.715,60.059,-646.484,-2.441,0,0
1586465085,-49.316,60.547,-477.051,-30.273,0,0
1586465085,-16.113,50.293,-443.848,13.184,0,0
1586465085,19.043,62.012,-442.383,31.25,0,0
1586465085,-2.441,68.359,-471.191,4.395,0,0
1586465086,-48.828,61.523,-571.289,-34.668,0,0
1586465086,-14.648,71.777,-620.117,-15.625,0,0
1586465086,49.805,82.52,-532.715,55.176,0,0
1586465086,25.391,84.961,-461.426,47.363,0,0
1586465086,-12.207,82.031,-576.172,-3.418,0,0
1586465086,1.465,83.984,-645.02,-1.465,0,0
1586465086,32.715,84.961,-490.723,28.32,0,0
1586465086,35.645,94.727,-424.316,66.895,0,0
1586465086,-12.695,116.211,-515.137,20.02,0,0
1586465086,-22.949,118.652,-584.961,-32.227,0,0
1586465086,31.738,124.023,-534.668,13.672,0,0
1586465086,56.152,135.742,-371.094,57.129,0,0
1586465086,26.855,132.812,-439.941,28.32,0,0
1586465086,6.348,131.836,-645.02,1.953,0,0
1586465086,36.133,149.414,-627.93,36.133,0,0
1586465086,69.824,158.203,-336.914,78.613,0,0
1586465086,26.855,152.832,-369.141,37.598,0,0
1586465086,-13.184,143.066,-671.387,21.973,0,0
1586465086,24.414,143.555,-614.746,53.223,0,0
1586465086,68.359,149.902,-239.258,56.641,0,0
1586465086,45.41,149.414,-280.762,40.039,0,0
1586465086,6.836,151.855,-512.695,8.301,0,0
1586465086,6.348,152.832,-494.629,35.156,0,0
1586465086,40.039,181.152,-312.988,81.055,0,0
1586465086,74.707,208.496,-305.176,85.938,0,0
1586465086,40.039,203.613,-514.16,55.176,0,0
1586465086,30.762,200.684,-514.648,47.852,0,0
1586465086,84.961,204.102,-314.941,100.098,0,0
1586465086,91.797,194.824,-297.852,134.277,0,0
1586465086,38.574,185.059,-459.961,95.703,0,0
1586465086,12.207,194.336,-466.309,57.617,0,0
1586465086,62.5,194.336,-299.805,72.754,0,0
1586465086,92.285,179.688,-225.586,82.031,0,0
1586465086,62.012,172.363,-416.016,65.43,0,0
1586465086,28.32,169.434,-476.074,32.715,0,0
1586465086,39.062,166.992,-326.172,55.664,0,0
1586465086,84.961,158.691,-294.434,93.262,0,0
1586465086,73.242,156.25,-342.285,61.523,0,0
1586465086,25.879,155.273,-375.977,15.625,0,0
1586465086,27.832,152.832,-355.957,14.648,0,0
1586465086,74.219,148.926,-335.938,46.387,0,0
1586465086,81.055,144.043,-415.039,71.289,0,0
1586465086,21.973,148.438,-465.332,17.578,0,0
1586465086,-10.254,146.484,-453.125,-5.859,0,0
1586465086,55.176,145.996,-490.234,36.621,0,0
1586465086,92.285,148.438,-431.152,45.41,0,0
1586465086,47.363,150.879,-281.738,13.672,0,0
1586465086,24.414,152.832,-397.949,-9.277,0,0
1586465086,48.828,148.926,-413.086,28.809,0,0
1586465086,58.105,148.438,-312.988,64.941,0,0
1586465086,33.203,154.785,-270.508,47.852,0,0
1586465086,2.93,159.18,-360.84,14.16,0,0
1586465086,30.273,158.203,-438.965,9.766,0,0
1586465086,79.102,162.109,-311.523,69.336,0,0
1586465086,58.105,160.156,-272.949,79.59,0,0
1586465086,4.883,145.508,-413.574,8.789,0,0
1586465086,7.812,149.414,-470.215,-3.906,0,0
1586465086,47.363,166.992,-341.309,41.016,0,0
1586465086,61.523,166.992,-327.637,76.172,0,0
1586465086,47.363,158.691,-535.156,34.668,0,0
1586465086,17.09,157.715,-673.34,44.922,0,0
1586465086,43.945,162.598,-462.891,74.219,0,0
1586465086,67.383,162.598,-323.73,55.664,0,0
1586465086,24.414,165.527,-578.613,23.438,0,0
1586465086,-4.395,167.48,-751.465,-2.441,0,0
1586465086,17.578,165.527,-609.375,18.066,0,0
1586465086,68.359,165.527,-415.039,63.965,0,0
1586465086,67.383,160.156,-542.48,67.383,0,0
1586465086,21.973,159.18,-723.145,4.395,0,0
1586465086,41.992,164.551,-458.496,12.207,0,0
1586465086,76.172,163.574,-353.516,71.777,0,0
1586465086,52.734,159.18,-372.07,54.199,0,0
1586465086,7.324,156.738,-457.52,-20.996,0,0
1586465086,10.254,166.992,-523.926,-3.906,0,0
1586465086,66.406,177.734,-451.172,57.129,0,0
1586465086,80.566,169.434,-332.52,52.246,0,0
1586465086,41.992,149.902,-395.996,-1.953,0,0
1586465086,10.254,160.156,-564.453,-19.531,0,0
1586465086,41.504,169.922,-490.723,19.531,0,0
1586465086,89.844,156.738,-356.934,48.34,0,0
1586465086,55.176,156.25,-323.242,29.785,0,0
1586465086,10.254,159.668,-355.957,-10.742,0,0
1586465086,31.738,154.785,-406.738,31.738,0,0
1586465086,62.5,155.762,-198.242,105.469,0,0
1586465086,56.641,156.738,44.434,70.801,0,0
1586465086,16.602,157.715,-167.969,5.371,0,0
1586465086,41.016,166.016,-410.156,17.578,0,0
1586465086,90.82,169.922,-291.992,82.031,0,0
1586465086,88.867,169.434,87.402,94.238,0,0
1586465086,60.059,169.922,-101.074,41.016,0,0
1586465086,40.039,161.621,-474.121,28.32,0,0
1586465086,53.711,154.785,-298.34,75.684,0,0
1586465086,84.473,156.25,205.566,81.543,0,0
1586465086,60.059,155.273,226.562,41.016,0,0
1586465086,20.996,153.32,-33.691,1.465,0,0
1586465086,52.246,150.391,94.238,9.766,0,0
1586465086,66.406,145.996,379.883,47.852,0,0
1586465086,20.02,133.789,237.305,32.227,0,0
1586465086,-14.648,124.512,146.973,-20.996,0,0
1586465086,13.184,132.324,277.344,-38.574,0,0
1586465086,47.363,136.23,360.352,-7.324,0,0
1586465086,36.621,130.371,326.66,-17.09,0,0
1586465086,-9.766,127.93,-34.668,-76.66,0,0
1586465086,-27.344,116.699,2.93,-95.215,0,0
1586465086,12.207,117.676,412.109,-27.832,0,0
1586465086,4.395,115.723,383.789,-20.996,0,0
1586465086,-41.016,98.633,75.684,-104.492,0,0
1586465086,-54.688,85.938,129.395,-130.371,0,0
1586465086,-27.344,83.008,381.348,-70.312,0,0
1586465086,-16.602,77.637,333.496,-17.578,0,0
1586465086,-55.664,70.801,214.355,-64.453,0,0
1586465086,-75.684,68.359,178.223,-109.863,0,0
1586465086,-33.203,62.012,243.652,-64.941,0,0
1586465086,8.301,59.082,113.77,-11.23,0,0
1586465086,-34.18,48.34,-115.234,-46.875,0,0
1586465086,-90.332,43.945,-82.52,-99.121,0,0
1586465086,-76.172,35.645,-53.223,-63.477,0,0
1586465086,-28.809,28.809,-6.348,-28.809,0,0
1586465086,-22.949,37.598,-156.738,-30.762,0,0
1586465086,-83.008,37.598,-360.352,-80.078,0,0
1586465086,-83.008,37.109,-389.16,-96.68,0,0
1586465086,-35.156,32.227,-379.883,-50.293,0,0
1586465086,-36.621,29.785,-292.969,-18.066,0,0
1586465086,-72.266,20.996,-353.516,-60.059,0,0
1586465086,-80.078,2.93,-497.559,-82.52,0,0
1586465086,-49.316,4.395,-488.77,-31.738,0,0
1586465086,-37.109,2.93,-350.098,-50.781,0,0
1586465086,-78.125,-0.977,-406.738,-84.961,0,0
1586465086,-104.98,-5.371,-598.633,-101.562,0,0
1586465086,-78.613,-12.695,-625.977,-65.918,0,0
1586465086,-45.41,-22.949,-458.008,-18.066,0,0
1586465086,-57.129,-27.344,-445.312,-41.016,0,0
1586465086,-85.449,-15.137,-673.34,-75.684,0,0
1586465086,-71.289,-8.789,-749.023,-71.777,0,0
1586465086,-20.996,-4.883,-550.293,-23.438,0,0
1586465086,-18.066,0.977,-468.262,2.93,0,0
1586465086,-53.711,4.395,-662.109,-34.668,0,0
1586465086,-50.781,5.371,-779.785,-62.988,0,0
1586465086,-20.996,6.348,-566.406,-36.621,0,0
1586465086,-19.531,2.441,-379.883,-1.465,0,0
1586465086,-54.199,0.977,-669.922,-30.762,0,0
1586465086,-62.012,12.207,-812.988,-58.105,0,0
1586465086,-18.066,13.672,-485.352,-36.621,0,0
1586465086,13.184,8.301,-396.973,3.906,0,0
1586465086,-21.973,9.277,-508.301,-9.277,0,0
1586465086,-63.477,10.742,-623.535,-62.012,0,0
1586465086,-14.648,15.137,-531.738,-10.742,0,0
1586465086,45.898,19.043,-366.699,55.176,0,0
1586465086,8.301,19.531,-472.168,29.785,0,0
1586465086,-42.48,21.973,-583.984,-8.301,0,0
1586465086,-13.672,24.414,-539.062,-5.371,0,0
1586465086,18.555,17.578,-372.07,36.621,0,0
1586465086,0.977,8.301,-443.359,38.086,0,0
1586465086,-34.18,12.695,-479.492,-5.371,0,0
1586465086,-36.621,20.02,-318.848,-19.531,0,0
1586465086,9.766,29.785,-256.348,13.184,0,0
1586465086,28.809,40.039,-83.008,37.109,0,0
1586465086,-0.977,43.457,73.73,18.066,0,0
1586465086,-20.508,40.039,-126.953,-14.648,0,0
1586465086,5.859,41.992,-180.664,-0.488,0,0
1586465086,18.066,34.18,57.129,38.086,0,0
1586465086,-23.438,18.066,-49.316,-12.207,0,0
1586465086,-50.293,12.207,-267.578,-41.992,0,0
1586465086,-33.691,9.766,-363.281,-12.207,0,0
1586465086,19.531,17.578,-356.445,18.066,0,0
1586465086,8.789,26.855,121.582,17.09,0,0
1586465086,-49.316,25.391,188.477,-30.273,0,0
1586465086,-41.016,25.391,18.066,-58.105,0,0
1586465086,0,21.973,224.609,4.883,0,0
1586465086,-1.953,23.926,348.633,33.691,0,0
1586465086,-35.645,22.949,195.801,-54.199,0,0
1586465086,-58.594,20.02,250.488,-90.82,0,0
1586465086,-50.293,22.949,394.531,-47.852,0,0
1586465086,-26.367,20.02,413.574,-39.551,0,0
1586465086,-48.828,20.996,366.699,-64.453,0,0
1586465086,-70.801,21.484,122.559,-83.984,0,0
1586465086,-59.082,16.602,234.375,-50.293,0,0
1586465086,-31.738,13.672,515.137,-23.926,0,0
1586465086,-47.363,19.531,343.75,-68.359,0,0
1586465086,-94.727,21.973,201.66,-112.305,0,0
1586465086,-68.848,26.855,250.977,-85.938,0,0
1586465086,-27.344,35.645,346.68,-38.086,0,0
1586465086,-41.504,31.738,193.848,-63.477,0,0
1586465086,-95.703,19.043,-206.055,-104.492,0,0
1586465086,-117.188,8.301,-348.145,-108.398,0,0
1586465086,-71.289,11.23,-299.805,-52.246,0,0
1586465086,-49.316,16.602,-444.336,-34.668,0,0
1586465086,-101.074,13.184,-676.758,-66.406,0,0
1586465086,-118.164,9.277,-581.055,-82.52,0,0
1586465086,-67.871,5.371,-507.812,-55.664,0,0
1586465086,-51.27,5.859,-523.438,-4.883,0,0
1586465086,-84.473,6.348,-622.07,-37.109,0,0
1586465086,-147.461,-5.371,-732.91,-70.801,0,0
1586465086,-120.117,-1.953,-784.18,-50.781,0,0
1586465086,-58.105,19.531,-738.281,-18.066,0,0
1586465086,-65.43,23.438,-720.703,-17.578,0,0
1586465086,-81.543,21.484,-839.844,-65.43,0,0
1586465086,-59.57,17.09,-890.625,-41.992,0,0
1586465086,-21.484,17.578,-789.062,15.625,0,0
1586465086,-18.066,32.227,-762.207,10.254,0,0
1586465086,-58.594,32.227,-847.656,-41.016,0,0
1586465086,-66.895,25.879,-896.484,-61.035,0,0
1586465086,-17.09,38.574,-869.141,3.906,0,0
1586465086,1.953,50.781,-802.734,28.32,0,0
1586465086,-28.809,48.828,-825.684,-5.859,0,0
1586465086,-37.598,60.059,-937.012,9.277,0,0
1586465086,-1.465,60.059,-911.133,24.902,0,0
1586465086,38.086,56.152,-736.328,27.344,0,0
1586465086,28.809,68.359,-796.875,19.531,0,0
1586465086,-8.789,61.523,-945.312,-7.324,0,0
1586465086,-3.906,58.105,-918.457,41.504,0,0
1586465086,41.992,60.547,-720.703,72.266,0,0
1586465086,50.293,63.965,-697.266,42.48,0,0
1586465086,-10.254,64.941,-813.477,8.301,0,0
1586465086,-4.395,59.57,-789.551,17.09,0,0
1586465086,36.621,54.688,-615.234,72.266,0,0
1586465086,24.902,49.316,-563.965,64.453,0,0
1586465086,-10.254,42.48,-752.441,4.395,0,0
1586465086,-19.043,42.969,-750,-8.789,0,0
1586465086,24.902,57.129,-508.301,34.668,0,0
1586465086,48.828,56.641,-412.109,54.199,0,0
1586465086,10.254,45.898,-576.172,-3.418,0,0
1586465086,1.953,44.922,-557.129,-26.367,0,0
1586465086,22.949,43.457,-357.422,34.18,0,0
1586465086,44.434,42.969,-229.98,61.035,0,0
1586465086,25.391,51.758,-434.082,27.832,0,0
1586465086,-32.715,64.941,-512.207,8.301,0,0
1586465086,2.93,68.359,-108.887,32.715,0,0
1586465086,54.688,64.941,206.055,60.547,0,0
1586465086,25.391,55.176,269.531,40.527,0,0
1586465086,-14.648,55.176,246.094,6.348,0,0
1586465086,15.137,58.105,315.43,17.09,0,0
1586465086,75.684,54.199,378.906,56.641,0,0
1586465086,51.27,60.547,374.023,51.27,0,0
1586465086,-29.297,69.336,414.062,-5.859,0,0
1586465086,-38.574,72.754,453.125,-6.836,0,0
1586465086,15.137,71.777,400.391,34.668,0,0
1586465086,29.297,71.777,497.07,63.965,0,0
1586465086,-3.906,77.148,579.102,33.691,0,0
1586465086,-55.176,66.895,504.395,2.441,0,0
1586465086,-56.152,52.246,475.098,10.254,0,0
1586465086,-30.273,57.617,553.711,19.043,0,0
1586465086,-70.801,57.617,663.086,-16.602,0,0
1586465086,-121.094,49.316,623.535,-69.824,0,0
1586465086,-125.488,46.387,641.602,-95.703,0,0
1586465086,-100.586,34.668,697.754,-71.289,0,0
1586465086,-123.535,24.902,717.285,-77.637,0,0
1586465086,-194.336,21.484,666.016,-141.602,0,0
1586465086,-201.66,23.926,607.422,-169.434,0,0
1586465086,-154.785,28.809,696.777,-126.953,0,0
1586465086,-168.457,20.996,729.492,-137.207,0,0
1586465086,-230.469,9.766,616.211,-187.5,0,0
1586465086,-242.188,17.578,559.082,-208.984,0,0
1586465086,-194.824,20.996,653.32,-203.613,0,0
1586465086,-202.148,17.578,660.156,-188.477,0,0
1586465086,-251.953,11.23,546.387,-198.242,0,0
1586465087,-270.508,18.066,484.375,-207.031,0,0
1586465087,-250.977,43.457,523.926,-232.422,0,0
1586465087,-191.406,54.199,606.934,-227.051,0,0
1586465087,-234.375,41.992,392.578,-241.211,0,0
1586465087,-323.73,34.18,241.699,-284.668,0,0
1586465087,-294.922,50.781,453.613,-251.465,0,0
1586465087,-235.352,50.293,510.742,-233.887,0,0
1586465087,-241.699,41.992,443.359,-224.121,0,0
1586465087,-281.738,47.852,357.422,-245.605,0,0
1586465087,-279.785,52.246,342.285,-284.668,0,0
1586465087,-239.746,53.711,395.02,-237.305,0,0
1586465087,-248.535,50.781,464.355,-211.914,0,0
1586465087,-293.945,40.039,353.027,-289.062,0,0
1586465087,-312.5,26.367,203.125,-321.777,0,0
1586465087,-294.434,31.25,208.008,-246.582,0,0
1586465087,-281.25,35.645,234.863,-244.629,0,0
1586465087,-294.434,31.738,165.039,-281.25,0,0
1586465087,-312.988,41.016,-163.574,-265.625,0,0
1586465087,-294.922,54.199,-355.957,-278.32,0,0
1586465087,-262.207,58.105,-312.988,-266.113,0,0
1586465087,-272.949,77.637,-248.535,-258.301,0,0
1586465087,-287.109,101.074,-269.043,-287.598,0,0
1586465087,-291.992,103.027,-425.781,-262.207,0,0
1586465087,-272.461,102.051,-257.324,-199.219,0,0
1586465087,-256.836,108.398,32.715,-231.445,0,0
1586465087,-315.43,118.164,-318.359,-279.297,0,0
1586465087,-323.73,122.559,-511.23,-292.48,0,0
1586465087,-263.672,127.441,-331.055,-284.18,0,0
1586465087,-266.113,135.254,-297.852,-237.305,0,0
1586465087,-308.105,137.207,-351.074,-282.227,0,0
1586465087,-312.012,138.184,-579.102,-321.777,0,0
1586465087,-266.113,142.09,-581.543,-263.184,0,0
1586465087,-243.652,154.297,-257.812,-227.051,0,0
1586465087,-290.039,148.926,-455.078,-237.793,0,0
1586465087,-314.941,139.648,-631.836,-275.391,0,0
1586465087,-291.504,148.926,-526.367,-278.809,0,0
1586465087,-256.836,155.762,-408.203,-226.074,0,0
1586465087,-268.066,158.691,-560.547,-237.793,0,0
1586465087,-307.129,162.109,-723.145,-290.039,0,0
1586465087,-285.156,165.039,-625,-264.16,0,0
1586465087,-217.773,172.363,-500.488,-200.195,0,0
1586465087,-209.473,181.152,-512.207,-211.914,0,0
1586465087,-273.926,187.012,-771.973,-265.625,0,0
1586465087,-291.016,198.242,-848.633,-265.625,0,0
1586465087,-243.164,205.566,-602.051,-218.262,0,0
1586465087,-213.867,212.402,-601.562,-177.246,0,0
1586465087,-226.562,226.074,-775.879,-182.129,0,0
1586465087,-229.492,239.258,-749.023,-173.34,0,0
1586465087,-194.336,245.605,-682.617,-162.598,0,0
1586465087,-152.832,241.211,-725.586,-157.227,0,0
1586465087,-175.781,237.305,-802.734,-169.434,0,0
1586465087,-196.777,245.605,-770.996,-195.312,0,0
1586465087,-168.457,251.953,-713.867,-174.316,0,0
1586465087,-143.066,248.535,-759.766,-128.906,0,0
1586465087,-132.812,246.582,-826.172,-113.77,0,0
1586465087,-163.574,248.535,-710.449,-148.926,0,0
1586465087,-149.414,250,-735.84,-143.555,0,0
1586465087,-104.98,252.93,-738.281,-76.172,0,0
1586465087,-104.98,254.395,-723.145,-57.129,0,0
1586465087,-116.211,251.953,-735.352,-104.98,0,0
1586465087,-100.098,243.652,-750.977,-122.07,0,0
1586465087,-64.941,247.559,-732.91,-82.52,0,0
1586465087,-45.898,258.789,-607.422,-59.57,0,0
1586465087,-69.824,258.789,-605.469,-71.777,0,0
1586465087,-90.332,252.93,-710.938,-83.496,0,0
1586465087,-56.641,250.977,-753.418,-74.219,0,0
1586465087,-31.25,251.465,-584.473,-47.363,0,0
1586465087,-43.945,240.234,-563.965,-62.012,0,0
1586465087,-69.336,242.676,-780.762,-90.332,0,0
1586465087,-53.711,254.395,-761.23,-54.199,0,0
1586465087,8.789,252.93,-589.844,-0.488,0,0
1586465087,26.367,245.117,-592.285,-3.906,0,0
1586465087,-28.32,227.539,-759.766,-51.27,0,0
1586465087,-35.156,224.121,-827.637,-58.594,0,0
1586465087,13.184,227.539,-727.051,2.93,0,0
1586465087,51.758,223.145,-616.211,30.762,0,0
1586465087,29.297,215.332,-750.977,-24.414,0,0
1586465087,-11.719,220.703,-896.484,-44.922,0,0
1586465087,24.902,222.656,-644.531,-10.742,0,0
1586465087,57.617,210.938,-544.922,35.645,0,0
1586465087,21.973,208.008,-680.176,20.02,0,0
1586465087,5.859,207.52,-750,-11.23,0,0
1586465087,45.898,203.125,-666.016,24.414,0,0
1586465087,74.219,194.336,-565.918,68.848,0,0
1586465087,57.129,188.477,-657.715,43.457,0,0
1586465087,29.297,186.035,-770.996,-9.766,0,0
1586465087,45.898,185.547,-646.484,0.977,0,0
1586465087,66.895,178.711,-478.516,65.918,0,0
1586465087,53.711,172.363,-534.668,85.938,0,0
1586465087,25.879,162.598,-550.293,38.086,0,0
1586465087,23.438,151.855,-449.707,34.668,0,0
1586465087,60.547,161.621,-399.414,85.938,0,0
1586465087,86.426,166.504,-378.418,93.75,0,0
1586465087,28.32,151.855,-396.484,34.668,0,0
1586465087,3.418,149.414,-423.828,20.508,0,0
1586465087,65.43,162.109,-435.547,69.336,0,0
1586465087,79.102,157.227,-477.051,88.867,0,0
1586465087,53.711,153.809,-464.844,54.688,0,0
1586465087,43.945,155.762,-420.898,26.855,0,0
1586465087,57.129,146.484,-458.984,53.711,0,0
1586465087,61.035,145.02,-477.051,93.75,0,0
1586465087,56.152,162.598,-247.559,76.66,0,0
1586465087,25.879,165.039,-354.98,31.25,0,0
1586465087,27.832,161.133,-492.676,34.18,0,0
1586465087,75.684,158.691,-317.383,83.984,0,0
1586465087,77.637,155.273,-271.484,70.801,0,0
1586465087,24.902,153.32,-474.609,36.133,0,0
1586465087,15.625,148.438,-471.68,45.41,0,0
1586465087,77.148,150.879,-353.027,76.66,0,0
1586465087,103.516,160.645,-395.02,95.703,0,0
1586465087,42.969,153.809,-549.316,64.453,0,0
1586465087,5.859,156.25,-647.461,36.133,0,0
1586465087,34.668,163.086,-553.711,34.668,0,0
1586465087,67.871,157.715,-455.566,79.59,0,0
1586465087,61.035,153.809,-634.766,73.73,0,0
1586465087,34.18,166.504,-805.176,43.457,0,0
1586465087,56.641,180.176,-740.723,94.238,0,0
1586465087,106.934,176.758,-620.605,151.367,0,0
1586465087,94.727,161.133,-766.113,120.605,0,0
1586465087,25.879,148.926,-958.496,40.527,0,0
1586465087,42.48,148.926,-879.883,35.156,0,0
1586465087,88.379,138.672,-838.379,95.215,0,0
1586465087,63.965,127.441,-890.137,106.445,0,0
1586465087,41.992,129.395,-957.031,52.734,0,0
1586465087,35.156,139.16,-876.465,23.926,0,0
1586465087,78.125,127.441,-829.102,60.059,0,0
1586465087,98.145,126.465,-810.059,82.52,0,0
1586465087,44.922,126.953,-839.844,46.387,0,0
1586465087,30.273,113.77,-906.25,30.273,0,0
1586465087,66.406,112.305,-913.086,61.523,0,0
1586465087,106.445,110.352,-879.883,102.539,0,0
1586465087,86.426,104.492,-878.906,91.309,0,0
1586465087,39.551,101.074,-929.199,53.223,0,0
1586465087,48.34,100.098,-962.402,76.172,0,0
1586465087,92.285,97.656,-917.969,105.957,0,0
1586465087,104.98,98.633,-882.324,78.125,0,0
1586465087,44.922,92.285,-914.551,41.016,0,0
1586465087,42.48,87.402,-940.43,56.152,0,0
1586465087,87.402,81.055,-879.883,86.914,0,0
1586465087,103.516,75.684,-825.195,83.984,0,0
1586465087,68.848,82.031,-867.188,50.293,0,0
1586465087,46.875,79.59,-949.219,14.16,0,0
1586465087,92.773,70.801,-913.574,63.477,0,0
1586465087,113.77,75.684,-720.703,109.375,0,0
1586465087,74.219,72.754,-723.145,56.641,0,0
1586465087,57.617,64.941,-901.367,29.297,0,0
1586465087,105.957,74.707,-838.867,68.359,0,0
1586465087,131.348,73.73,-465.82,120.117,0,0
1586465087,89.355,70.312,-412.109,125.488,0,0
1586465087,44.922,58.105,-660.156,46.387,0,0
1586465087,69.824,50.781,-616.211,51.27,0,0
1586465087,122.559,68.848,-238.77,123.047,0,0
1586465087,107.422,68.848,-162.109,118.652,0,0
1586465087,69.824,51.758,-367.188,91.797,0,0
1586465087,64.941,48.34,-413.574,81.543,0,0
1586465087,92.773,55.176,-166.504,91.309,0,0
1586465087,104.492,57.129,56.152,110.352,0,0
1586465087,63.965,51.27,-233.887,66.406,0,0
1586465087,35.156,46.387,-435.547,25.879,0,0
1586465087,65.918,41.992,-145.02,74.219,0,0
1586465087,82.031,39.551,124.023,91.309,0,0
1586465087,45.41,41.016,-26.367,20.02,0,0
1586465087,13.672,37.109,-147.461,-22.949,0,0
1586465087,19.531,34.668,143.066,12.695,0,0
1586465087,59.082,40.039,322.266,75.195,0,0
1586465087,65.43,44.434,110.352,72.754,0,0
1586465087,22.461,41.016,105.957,14.16,0,0
1586465087,33.203,38.086,326.172,17.09,0,0
1586465087,82.031,41.016,328.125,63.477,0,0
1586465087,68.359,38.574,301.758,62.012,0,0
1586465087,23.926,40.527,258.789,33.691,0,0
1586465087,18.066,41.992,315.918,18.066,0,0
1586465087,72.266,41.504,212.891,19.531,0,0
1586465087,87.891,44.434,185.547,39.551,0,0
1586465087,44.434,45.41,343.75,9.277,0,0
1586465087,30.762,43.457,269.531,-9.277,0,0
1586465087,61.523,43.457,313.965,50.293,0,0
1586465087,82.52,47.852,369.629,73.73,0,0
1586465087,55.176,52.734,324.707,36.621,0,0
1586465087,16.113,49.805,234.375,1.465,0,0
1586465087,57.617,56.641,292.969,22.949,0,0
1586465087,93.75,62.012,403.809,73.242,0,0
1586465087,54.199,62.5,399.902,67.383,0,0
1586465087,29.785,71.777,327.148,32.715,0,0
1586465087,32.227,65.43,18.555,14.16,0,0
1586465087,66.406,67.383,194.336,50.293,0,0
1586465087,65.43,83.496,460.449,42.969,0,0
1586465087,23.926,83.984,178.711,-2.93,0,0
1586465087,20.996,86.914,58.594,-21.484,0,0
1586465087,62.5,96.68,257.324,11.719,0,0
1586465087,73.242,96.191,354.004,59.57,0,0
1586465087,34.668,88.867,91.309,20.02,0,0
1586465087,3.906,87.891,-285.645,-25.391,0,0
1586465087,30.762,94.727,-335.449,9.277,0,0
1586465087,48.828,90.332,-106.445,58.105,0,0
1586465087,32.227,86.426,-294.434,30.762,0,0
1586465087,10.742,90.332,-592.285,-15.137,0,0
1586465087,13.672,89.844,-327.637,-4.395,0,0
1586465087,53.711,97.656,-178.711,35.645,0,0
1586465087,43.945,109.863,-280.273,29.785,0,0
1586465087,14.16,118.164,-429.688,-24.414,0,0
1586465087,10.742,121.094,-484.375,-24.414,0,0
1586465087,31.738,120.117,-401.855,38.086,0,0
1586465087,30.273,116.211,-339.355,38.574,0,0
1586465087,7.324,109.375,-484.375,-3.906,0,0
1586465087,8.301,109.375,-581.055,13.672,0,0
1586465087,44.922,127.93,-430.176,57.617,0,0
1586465087,55.664,135.742,-465.82,78.125,0,0
1586465087,28.32,137.207,-579.59,31.738,0,0
1586465087,24.414,153.809,-574.707,-0.977,0,0
1586465087,41.992,163.086,-579.102,36.133,0,0
1586465087,78.125,164.551,-441.406,92.285,0,0
1586465087,81.543,160.645,-470.703,78.613,0,0
1586465087,53.711,145.996,-643.555,32.715,0,0
1586465087,70.312,145.508,-726.074,35.645,0,0
1586465087,88.379,156.25,-582.031,106.445,0,0
1586465087,91.309,149.902,-543.945,86.914,0,0
1586465087,78.613,149.902,-746.094,6.348,0,0
1586465087,78.125,143.555,-838.379,24.902,0,0
1586465087,94.238,129.395,-752.441,86.914,0,0
1586465087,71.289,128.418,-495.117,89.355,0,0
1586465087,35.645,117.188,-577.148,40.527,0,0
1586465087,25.391,108.887,-678.223,45.898,0,0
1586465087,57.129,115.234,-529.785,63.477,0,0
1586465087,77.637,112.305,-450.195,97.168,0,0
1586465087,49.805,106.934,-609.375,67.871,0,0
1586465087,28.32,85.938,-699.707,21.484,0,0
1586465087,39.551,65.918,-529.297,39.062,0,0
1586465087,73.242,72.266,-437.5,56.641,0,0
1586465087,69.336,66.406,-565.43,45.41,0,0
1586465087,20.996,54.688,-670.41,17.578,0,0
1586465087,2.93,57.129,-606.445,12.695,0,0
1586465087,58.594,64.941,-436.035,38.574,0,0
1586465087,66.895,62.988,-496.582,46.387,0,0
1586465087,7.812,41.992,-758.301,24.902,0,0
1586465087,10.254,33.691,-728.516,9.277,0,0
1586465087,58.105,40.039,-559.57,20.02,0,0
1586465087,63.965,37.598,-600.098,54.688,0,0
1586465087,22.461,23.438,-773.438,4.395,0,0
1586465087,6.348,11.23,-799.316,-36.621,0,0
1586465087,31.738,13.672,-678.711,8.789,0,0
1586465087,48.828,11.719,-700.684,66.406,0,0
1586465087,32.227,3.418,-796.875,47.363,0,0
1586465087,18.066,0.977,-716.309,-4.395,0,0
1586465087,26.855,-0.977,-652.832,-1.953,0,0
1586465087,46.387,-6.836,-541.016,50.781,0,0
1586465087,36.133,-10.742,-520.02,48.34,0,0
1586465087,6.348,-10.254,-565.43,-24.902,0,0
1586465087,23.926,-12.207,-595.215,-10.254,0,0
1586465087,43.457,-17.578,-529.785,42.969,0,0
1586465087,29.785,-17.578,-431.152,35.645,0,0
1586465087,5.859,-15.137,-490.234,-8.301,0,0
1586465087,-7.812,-21.973,-580.566,-26.855,0,0
1586465087,23.438,-27.344,-518.555,27.832,0,0
1586465087,36.621,-26.367,-408.203,50.781,0,0
1586465087,9.766,-37.109,-409.668,-12.695,0,0
1586465088,5.371,-40.527,-452.637,-26.367,0,0
1586465088,19.043,-35.645,-417.969,20.996,0,0
1586465088,32.715,-35.645,-64.453,48.34,0,0
1586465088,26.855,-35.645,-2.93,14.648,0,0
1586465088,0.488,-43.945,-358.398,-41.016,0,0
1586465088,-0.977,-43.945,-438.965,-15.137,0,0
1586465088,21.484,-40.527,-2.441,34.18,0,0
1586465088,27.344,-36.621,187.012,6.348,0,0
1586465088,-6.348,-39.551,-278.32,-30.762,0,0
1586465088,-15.625,-43.945,-454.102,-14.648,0,0
1586465088,29.297,-37.598,-5.371,48.828,0,0
1586465088,31.738,-45.41,340.332,62.988,0,0
1586465088,-6.348,-56.152,-105.469,-11.23,0,0
1586465088,-19.043,-55.664,-504.395,-27.832,0,0
1586465088,13.184,-54.199,20.508,17.578,0,0
1586465088,19.043,-61.035,369.141,48.828,0,0
1586465088,-24.902,-68.848,121.582,-15.137,0,0
1586465088,-29.297,-73.242,-97.168,-55.176,0,0
1586465088,-0.977,-70.312,173.828,-9.277,0,0
1586465088,15.137,-62.988,424.316,40.527,0,0
1586465088,-6.836,-60.547,349.121,4.395,0,0
1586465088,-38.574,-63.965,253.418,-55.176,0,0
1586465088,-24.902,-66.895,333.984,-39.062,0,0
1586465088,13.672,-63.477,477.539,15.137,0,0
1586465088,2.441,-69.336,460.449,-1.465,0,0
1586465088,-50.293,-66.895,412.109,-62.988,0,0
1586465088,-59.082,-58.105,415.039,-71.777,0,0
1586465088,-21.484,-70.801,472.656,-43.945,0,0
1586465088,-27.832,-75.684,309.082,-37.109,0,0
1586465088,-70.312,-60.059,234.863,-77.637,0,0
1586465088,-66.895,-54.199,325.684,-76.66,0,0
1586465088,-28.32,-65.918,240.723,-38.086,0,0
1586465088,-23.926,-67.383,144.531,-32.227,0,0
1586465088,-53.223,-62.012,-124.512,-62.012,0,0
1586465088,-74.707,-58.105,-395.996,-73.242,0,0
1586465088,-63.477,-58.105,-562.5,-55.176,0,0
1586465088,-32.715,-70.801,-662.109,-1.953,0,0
1586465088,-51.27,-67.383,-542.969,-8.301,0,0
1586465088,-92.285,-57.617,-712.891,-79.59,0,0
1586465088,-65.918,-59.082,-785.156,-58.594,0,0
1586465088,-19.531,-56.152,-708.496,0.488,0,0
1586465088,-34.668,-48.34,-782.715,-6.348,0,0
1586465088,-54.199,-46.875,-905.273,-20.996,0,0
1586465088,-57.617,-55.664,-932.617,-40.527,0,0
1586465088,-37.598,-74.707,-898.438,-27.344,0,0
1586465088,-9.277,-73.242,-874.023,-15.137,0,0
1586465088,-37.598,-59.57,-917.48,-73.242,0,0
1586465088,-83.496,-62.5,-963.867,-85.449,0,0
1586465088,-47.363,-62.988,-896.973,-34.668,0,0
1586465088,-16.113,-57.129,-794.922,-6.348,0,0
1586465088,-44.434,-60.547,-866.699,-32.715,0,0
1586465088,-74.219,-60.547,-925.781,-64.453,0,0
1586465088,-41.016,-53.223,-869.141,-33.691,0,0
1586465088,8.301,-50.781,-770.996,16.113,0,0
1586465088,-2.441,-52.734,-858.398,5.859,0,0
1586465088,-43.945,-54.199,-958.008,-25.391,0,0
1586465088,-35.156,-47.363,-882.812,-9.277,0,0
1586465088,12.207,-38.086,-845.215,36.621,0,0
1586465088,27.344,-45.898,-891.602,21.973,0,0
1586465088,-10.742,-45.41,-964.355,-34.18,0,0
1586465088,-24.414,-34.668,-886.23,-37.598,0,0
1586465088,20.508,-29.297,-796.875,6.348,0,0
1586465088,16.113,-29.785,-746.094,27.344,0,0
1586465088,-28.809,-30.762,-809.57,-0.488,0,0
1586465088,-27.344,-26.367,-853.027,-20.508,0,0
1586465088,17.578,-30.273,-820.801,9.277,0,0
1586465088,40.039,-34.668,-741.699,89.355,0,0
1586465088,28.809,-29.785,-678.223,57.129,0,0
1586465088,-2.93,-20.996,-724.121,-44.922,0,0
1586465088,8.789,-27.344,-696.777,-26.855,0,0
1586465088,42.48,-33.691,-669.434,47.363,0,0
1586465088,37.109,-21.484,-645.996,52.734,0,0
1586465088,10.742,-22.461,-566.406,-5.371,0,0
1586465088,6.348,-34.668,-528.32,13.672,0,0
1586465088,37.109,-40.039,-390.137,79.102,0,0
1586465088,52.246,-29.297,-288.086,78.613,0,0
1586465088,15.625,-21.973,-367.676,25.391,0,0
1586465088,-2.93,-23.926,-440.43,-8.789,0,0
1586465088,31.738,-18.555,-396.484,48.828,0,0
1586465088,73.73,-12.207,-38.086,103.027,0,0
1586465088,41.504,-17.09,16.602,44.434,0,0
1586465088,2.441,-23.926,-459.961,6.836,0,0
1586465088,22.461,-20.02,-395.02,32.715,0,0
1586465088,58.105,-13.184,125.977,66.895,0,0
1586465088,54.688,-4.883,236.328,55.664,0,0
1586465088,17.578,3.906,-206.055,32.715,0,0
1586465088,43.945,5.371,-357.91,42.48,0,0
1586465088,99.121,7.324,224.121,59.082,0,0
1586465088,72.266,13.184,330.078,67.871,0,0
1586465088,41.504,23.926,17.578,46.387,0,0
1586465088,36.133,41.016,-103.027,26.855,0,0
1586465088,40.039,39.062,252.441,61.523,0,0
1586465088,54.688,30.762,412.598,92.285,0,0
1586465088,40.039,40.039,171.875,65.43,0,0
1586465088,37.598,48.828,189.453,17.09,0,0
1586465088,85.449,57.617,433.594,47.852,0,0
1586465088,122.07,73.73,451.66,91.797,0,0
1586465088,98.633,82.031,320.801,35.156,0,0
1586465088,45.898,88.379,346.68,-9.277,0,0
1586465088,20.02,99.609,504.395,38.086,0,0
1586465088,29.297,110.84,582.031,95.703,0,0
1586465088,25.879,118.164,576.66,62.012,0,0
1586465088,4.395,137.695,574.219,-2.441,0,0
1586465088,30.273,153.32,617.676,32.227,0,0
1586465088,45.41,154.785,652.832,93.262,0,0
1586465088,11.23,163.086,643.555,95.703,0,0
1586465088,-22.949,176.27,647.949,40.527,0,0
1586465088,-20.02,183.105,692.871,27.344,0,0
1586465088,7.324,189.941,670.41,42.48,0,0
1586465088,5.371,200.684,728.516,41.016,0,0
1586465088,-12.695,199.707,726.562,0,0,0
1586465088,-26.367,196.289,686.523,-41.016,0,0
1586465088,-2.441,198.242,631.348,-23.438,0,0
1586465088,45.898,200.195,578.613,6.348,0,0
1586465088,-10.742,194.336,631.836,-12.695,0,0
1586465088,-87.402,178.223,582.52,-49.805,0,0
1586465088,-50.293,177.246,529.297,-34.18,0,0
1586465088,-31.738,180.176,496.094,8.789,0,0
1586465088,-74.219,172.363,391.602,-15.625,0,0
1586465088,-122.07,161.621,226.074,-68.848,0,0
1586465088,-133.789,159.18,-45.898,-72.266,0,0
1586465088,-76.66,159.668,87.402,-55.664,0,0
1586465088,-68.848,156.738,272.461,-20.508,0,0
1586465088,-106.445,158.691,-157.227,-60.547,0,0
1586465088,-95.215,151.367,-502.93,-99.121,0,0
1586465088,-42.48,145.508,-334.473,-46.387,0,0
1586465088,-38.574,146.484,-293.945,-19.043,0,0
1586465088,-82.52,147.461,-546.875,-48.828,0,0
1586465088,-89.355,145.02,-778.809,-103.027,0,0
1586465088,-67.383,140.137,-747.07,-93.262,0,0
1586465088,-42.48,139.16,-744.141,-39.551,0,0
1586465088,-62.012,132.324,-888.184,-58.594,0,0
1586465088,-109.375,132.324,-978.516,-85.449,0,0
1586465088,-85.938,125,-891.113,-78.613,0,0
1586465088,-28.809,109.375,-877.441,-22.949,0,0
1586465088,-48.34,115.234,-908.691,-27.344,0,0
1586465088,-95.215,122.559,-929.688,-77.637,0,0
1586465088,-55.176,124.023,-944.336,-57.617,0,0
1586465088,-8.789,113.77,-917.48,-42.969,0,0
1586465088,-46.875,105.469,-895.02,-31.25,0,0
1586465088,-96.68,106.934,-921.875,-57.129,0,0
1586465088,-97.656,104.004,-957.52,-66.406,0,0
1586465088,-49.805,106.445,-906.738,-34.668,0,0
1586465088,-15.625,107.422,-926.758,4.395,0,0
1586465088,-51.27,104.98,-982.91,-18.066,0,0
1586465088,-70.312,108.887,-929.199,-72.266,0,0
1586465088,-33.203,111.328,-908.203,-35.645,0,0
1586465088,-0.977,109.863,-884.277,-1.953,0,0
1586465088,-21.484,105.469,-897.461,-65.43,0,0
1586465088,-65.918,96.68,-948.73,-89.844,0,0
1586465088,-49.805,93.75,-976.562,-48.828,0,0
1586465088,9.277,98.633,-915.039,-3.418,0,0
1586465088,5.371,91.309,-875,2.441,0,0
1586465088,-49.805,84.961,-973.633,-45.898,0,0
1586465088,-26.855,101.562,-964.844,-41.016,0,0
1586465088,30.762,107.91,-904.297,6.348,0,0
1586465088,25.879,104.004,-904.297,33.691,0,0
1586465088,-15.625,98.633,-937.988,18.066,0,0
1586465088,-33.691,93.75,-986.816,-25.879,0,0
1586465088,16.602,104.98,-955.566,-12.695,0,0
1586465088,58.105,112.793,-876.953,3.906,0,0
1586465088,26.855,109.375,-947.754,-19.531,0,0
1586465088,-12.695,98.633,-962.891,-29.785,0,0
1586465088,24.902,97.168,-880.859,-14.16,0,0
1586465088,68.359,107.422,-814.941,10.742,0,0
1586465088,28.32,109.863,-823.73,-5.371,0,0
1586465088,2.441,107.422,-934.57,-13.184,0,0
1586465088,33.691,106.934,-876.465,6.836,0,0
1586465088,62.988,101.074,-671.387,40.039,0,0
1586465088,54.199,90.332,-705.566,45.898,0,0
1586465088,26.367,90.332,-794.922,9.277,0,0
1586465088,25.391,83.984,-781.25,-8.301,0,0
1586465088,62.5,75.195,-666.016,5.859,0,0
1586465088,74.707,70.312,-697.754,16.113,0,0
1586465088,6.348,65.43,-824.707,-34.668,0,0
1586465088,-18.066,58.594,-777.344,-61.035,0,0
1586465088,29.785,58.105,-680.176,-19.531,0,0
1586465088,46.387,55.664,-745.605,10.254,0,0
1586465088,25.879,42.969,-853.516,-17.09,0,0
1586465088,3.418,37.109,-810.547,-41.504,0,0
1586465088,23.926,29.297,-751.465,-40.527,0,0
1586465088,53.223,24.902,-723.145,-9.766,0,0
1586465088,33.691,29.297,-739.746,-8.789,0,0
1586465088,12.695,28.32,-599.609,-57.129,0,0
1586465088,41.016,23.438,-511.23,-22.461,0,0
1586465088,53.711,16.602,-479.004,29.785,0,0
1586465088,38.086,15.625,-353.027,28.809,0,0
1586465088,4.395,16.113,-266.113,-28.809,0,0
1586465088,2.441,17.578,-210.449,-45.41,0,0
1586465088,48.34,17.09,-64.941,18.555,0,0
1586465088,40.527,8.301,180.664,33.691,0,0
1586465088,-0.488,5.859,305.664,-1.953,0,0
1586465088,7.324,2.441,181.641,-18.066,0,0
1586465088,34.18,-6.348,203.613,-7.812,0,0
1586465088,50.293,-13.184,302.734,13.672,0,0
1586465088,20.996,-11.23,292.969,-20.508,0,0
1586465088,-29.297,-12.695,212.402,-69.336,0,0
1586465088,-19.043,-12.207,237.793,-33.203,0,0
1586465088,16.113,-5.859,444.824,7.324,0,0
1586465088,2.441,-15.137,443.848,6.836,0,0
1586465088,-35.645,-24.414,310.059,-27.832,0,0
1586465088,-19.043,-29.785,279.297,-53.223,0,0
1586465088,15.137,-23.926,431.152,-7.324,0,0
1586465088,3.418,-15.137,527.344,-14.648,0,0
1586465088,-30.273,-21.484,288.574,-69.336,0,0
1586465088,-60.059,-22.461,230.957,-80.078,0,0
1586465088,-33.203,-22.949,510.254,-54.688,0,0
1586465088,-11.719,-27.344,582.52,-44.922,0,0
1586465088,-44.922,-31.25,373.535,-66.895,0,0
1586465088,-66.895,-27.344,286.133,-91.797,0,0
1586465088,-38.574,-28.809,437.5,-72.754,0,0
1586465088,-21.973,-46.875,476.562,-14.16,0,0
1586465088,-45.41,-52.734,418.457,-58.105,0,0
1586465088,-68.359,-46.387,243.652,-117.676,0,0
1586465088,-81.543,-48.34,242.676,-92.773,0,0
1586465088,-80.078,-59.082,417.48,-62.012,0,0
1586465088,-66.406,-77.148,27.832,-83.496,0,0
1586465088,-96.191,-87.891,-257.324,-155.762,0,0
1586465088,-94.727,-86.426,40.039,-139.16,0,0
1586465088,-47.852,-78.125,134.277,-82.52,0,0
1586465088,-53.711,-79.59,65.43,-84.961,0,0
1586465088,-65.43,-81.055,-246.094,-129.395,0,0
1586465088,-71.289,-81.055,-436.523,-126.465,0,0
1586465088,-52.246,-87.402,-446.289,-88.867,0,0
1586465088,-30.762,-78.125,-521.484,-70.312,0,0
1586465088,-56.641,-69.824,-593.75,-101.074,0,0
1586465088,-80.566,-79.102,-667.48,-149.902,0,0
1586465088,-76.66,-84.473,-728.027,-128.906,0,0
1586465088,-33.203,-82.52,-638.672,-74.219,0,0
1586465088,-21.484,-84.473,-585.938,-81.055,0,0
1586465088,-45.898,-80.078,-723.633,-120.605,0,0
1586465088,-38.086,-80.566,-847.656,-93.75,0,0
1586465088,-28.32,-85.938,-802.734,-28.32,0,0
1586465088,-4.395,-81.055,-681.152,-30.273,0,0
1586465088,-29.785,-80.078,-834.473,-85.938,0,0
1586465088,-67.383,-82.031,-818.359,-85.938,0,0
1586465088,-24.902,-87.402,-680.664,-42.969,0,0
1586465088,-8.789,-91.309,-700.195,-36.621,0,0
1586465088,-24.902,-86.914,-779.297,-46.387,0,0
1586465088,-39.062,-91.797,-893.555,-57.617,0,0
1586465088,-9.277,-94.238,-770.02,-45.898,0,0
1586465088,19.043,-83.008,-486.328,0,0,0
1586465088,-11.23,-89.844,-592.773,2.93,0,0
1586465088,-46.875,-86.914,-712.402,-44.434,0,0
1586465088,-16.602,-80.078,-573.73,-21.484,0,0
1586465088,16.602,-88.379,-412.598,29.785,0,0
1586465088,-2.441,-83.008,-516.113,-4.883,0,0
1586465088,-20.02,-75.684,-675.781,-22.461,0,0
1586465088,-21.484,-89.355,-569.336,-12.207,0,0
1586465088,18.066,-100.586,-427.246,22.461,0,0
1586465088,30.273,-97.656,-549.805,20.996,0,0
1586465088,-3.906,-110.352,-729.98,-23.438,0,0
1586465088,-11.719,-101.074,-491.211,1.465,0,0
1586465088,11.719,-82.031,-304.199,22.461,0,0
1586465088,29.297,-90.332,-291.992,7.812,0,0
1586465088,-1.465,-95.703,-396.973,-24.414,0,0
1586465089,-23.926,-97.168,-334.473,-21.484,0,0
1586465089,12.695,-96.191,-268.555,42.48,0,0
1586465089,34.668,-95.703,-92.773,66.895,0,0
1586465089,1.953,-101.562,152.832,15.625,0,0
1586465089,-17.578,-99.121,91.309,-26.855,0,0
1586465089,8.789,-88.379,88.867,0.977,0,0
1586465089,29.297,-88.867,49.805,55.664,0,0
1586465089,8.789,-99.121,86.426,23.926,0,0
1586465089,-22.949,-105.469,252.93,-43.945,0,0
1586465089,-16.113,-101.562,198.73,-16.602,0,0
1586465089,12.695,-96.191,303.223,31.25,0,0
1586465089,5.371,-95.215,379.395,22.461,0,0
1586465089,-20.02,-87.402,277.832,-3.418,0,0
1586465089,-13.184,-90.332,181.152,-15.625,0,0
1586465089,19.531,-92.773,292.48,0.977,0,0
1586465089,17.578,-84.961,399.414,56.641,0,0
1586465089,-15.625,-86.914,346.68,5.859,0,0
1586465089,-30.273,-83.008,150.879,-60.059,0,0
1586465089,4.883,-67.383,116.699,-3.418,0,0
1586465089,35.156,-71.289,428.223,54.688,0,0
1586465089,-1.465,-77.148,412.109,21.484,0,0
1586465089,-54.199,-62.012,160.156,-43.457,0,0
1586465089,-29.785,-51.27,219.727,-35.645,0,0
1586465089,25.391,-50.293,447.754,24.414,0,0
1586465089,-12.207,-54.688,387.695,26.367,0,0
1586465089,-51.758,-51.27,211.914,-46.875,0,0
1586465089,-44.434,-41.016,269.531,-63.965,0,0
1586465089,-11.23,-37.109,464.355,-25.391,0,0
1586465089,-1.465,-37.598,444.336,-18.555,0,0
1586465089,-37.598,-39.551,330.078,-40.527,0,0
1586465089,-52.246,-31.25,308.105,-40.527,0,0
1586465089,-24.902,-20.02,442.383,-22.461,0,0
1586465089,-11.23,-11.23,533.203,1.953,0,0
1586465089,-39.062,-1.465,293.945,-9.277,0,0
1586465089,-65.43,3.906,298.34,-50.293,0,0
1586465089,-43.457,15.625,523.438,-46.387,0,0
1586465089,-9.766,23.926,526.855,-7.812,0,0
1586465089,-42.969,24.902,484.863,-34.18,0,0
1586465089,-103.516,34.668,442.383,-82.031,0,0
1586465089,-73.73,50.781,497.559,-58.594,0,0
1586465089,-28.32,50.293,560.547,-9.766,0,0
1586465089,-36.621,41.016,481.934,-14.648,0,0
1586465089,-67.383,51.27,435.547,-55.664,0,0
1586465089,-75.195,59.082,506.348,-67.871,0,0
1586465089,-49.316,44.922,437.5,-46.387,0,0
1586465089,-37.598,49.805,430.664,-25.391,0,0
1586465089,-65.918,61.035,507.812,-59.57,0,0
1586465089,-108.398,50.781,485.352,-101.562,0,0
1586465089,-75.195,41.504,431.152,-61.035,0,0
1586465089,-52.734,39.062,446.289,-35.156,0,0
1586465089,-90.82,28.32,465.82,-74.219,0,0
1586465089,-101.562,28.809,390.137,-122.559,0,0
1586465089,-64.453,35.156,406.25,-112.793,0,0
1586465089,-59.57,33.203,418.945,-54.199,0,0
1586465089,-98.633,30.762,375.977,-75.195,0,0
1586465089,-135.254,29.297,331.055,-147.461,0,0
1586465089,-131.836,15.137,-62.5,-125.488,0,0
1586465089,-95.215,12.695,-5.859,-64.453,0,0
1586465089,-84.961,25.391,368.164,-85.938,0,0
1586465089,-116.699,26.855,-24.902,-127.93,0,0
1586465089,-128.418,25.391,-272.949,-125,0,0
1586465089,-67.383,29.297,67.871,-79.102,0,0
1586465089,-64.941,26.367,272.949,-65.43,0,0
1586465089,-109.863,15.625,-108.887,-80.078,0,0
1586465089,-119.141,15.625,-436.523,-105.469,0,0
1586465089,-86.426,15.625,-334.961,-94.727,0,0
1586465089,-56.152,8.301,48.34,-64.941,0,0
1586465089,-81.543,0.977,14.16,-94.727,0,0
1586465089,-128.418,3.418,-439.453,-118.652,0,0
1586465089,-112.305,4.883,-33.203,-111.816,0,0
1586465089,-68.359,7.324,375.488,-88.867,0,0
1586465089,-88.867,5.371,118.652,-115.723,0,0
1586465089,-131.348,-1.465,28.809,-172.363,0,0
1586465089,-119.629,7.324,221.68,-146.973,0,0
1586465089,-87.402,3.906,284.18,-81.543,0,0
1586465089,-89.355,-0.488,363.281,-79.59,0,0
1586465089,-139.16,5.859,305.664,-134.277,0,0
1586465089,-147.461,5.859,234.375,-164.062,0,0
1586465089,-91.797,1.465,358.398,-124.023,0,0
1586465089,-82.031,-3.906,276.367,-105.957,0,0
1586465089,-134.277,4.883,197.266,-139.648,0,0
1586465089,-139.16,11.23,325.195,-169.434,0,0
1586465089,-104.004,5.371,304.688,-143.066,0,0
1586465089,-88.867,-2.93,309.57,-94.238,0,0
1586465089,-110.84,-10.742,269.531,-136.23,0,0
1586465089,-148.926,-15.137,120.117,-164.551,0,0
1586465089,-129.395,-15.625,-185.059,-138.184,0,0
1586465089,-99.121,-9.766,-41.504,-129.883,0,0
1586465089,-129.395,-10.742,55.664,-132.324,0,0
1586465089,-163.574,-19.531,-380.859,-148.926,0,0
1586465089,-145.996,-28.809,-590.82,-155.273,0,0
1586465089,-107.91,-29.785,-497.07,-127.93,0,0
1586465089,-108.887,-22.461,-245.117,-111.328,0,0
1586465089,-136.23,-21.484,-392.09,-149.902,0,0
1586465089,-130.859,-17.578,-559.082,-137.695,0,0
1586465089,-94.727,-15.137,-412.598,-104.492,0,0
1586465089,-76.172,-17.09,-293.457,-101.562,0,0
1586465089,-104.004,-25.879,-524.902,-119.141,0,0
1586465089,-144.043,-31.25,-689.453,-146.973,0,0
1586465089,-105.469,-30.762,-491.211,-135.254,0,0
1586465089,-63.965,-29.785,-348.633,-89.355,0,0
1586465089,-93.75,-29.785,-479.004,-113.281,0,0
1586465089,-122.07,-36.621,-738.77,-160.156,0,0
1586465089,-111.328,-30.762,-672.852,-132.324,0,0
1586465089,-71.289,-24.902,-361.816,-87.891,0,0
1586465089,-77.637,-30.762,-434.57,-108.887,0,0
1586465089,-127.441,-33.691,-561.523,-139.16,0,0
1586465089,-137.207,-38.086,-469.727,-112.793,0,0
1586465089,-84.473,-37.598,-300.293,-125.977,0,0
1586465089,-71.289,-40.527,-351.562,-142.09,0,0
1586465089,-117.188,-49.805,-532.715,-156.738,0,0
1586465089,-132.324,-48.34,-542.48,-176.27,0,0
1586465089,-80.566,-40.527,-434.082,-124.512,0,0
1586465089,-53.223,-42.969,-560.059,-78.125,0,0
1586465089,-105.957,-54.688,-749.023,-125.977,0,0
1586465089,-121.094,-54.688,-674.805,-164.551,0,0
1586465089,-82.52,-46.387,-578.613,-118.652,0,0
1586465089,-66.406,-48.34,-653.32,-62.988,0,0
1586465089,-92.285,-46.387,-778.32,-97.656,0,0
1586465089,-106.445,-39.062,-718.262,-139.16,0,0
1586465089,-92.773,-32.227,-746.094,-145.996,0,0
1586465089,-62.5,-27.344,-648.926,-96.68,0,0
1586465089,-65.918,-34.668,-582.031,-68.359,0,0
1586465089,-101.074,-38.086,-679.199,-141.602,0,0
1586465089,-89.844,-32.227,-712.891,-146.973,0,0
1586465089,-55.176,-36.133,-641.113,-72.754,0,0
1586465089,-30.762,-33.203,-563.477,-56.152,0,0
1586465089,-64.453,-17.09,-641.113,-119.629,0,0
1586465089,-94.238,-19.531,-739.746,-121.094,0,0
1586465089,-61.035,-24.414,-792.969,-59.082,0,0
1586465089,-48.828,-15.625,-726.074,-30.273,0,0
1586465089,-81.055,-9.766,-740.723,-67.871,0,0
1586465089,-110.84,-22.949,-894.043,-96.191,0,0
1586465089,-72.266,-29.297,-893.066,-84.961,0,0
1586465089,-24.902,-8.301,-854.98,-43.457,0,0
1586465089,-37.109,-2.93,-907.715,-47.363,0,0
1586465089,-76.172,-4.883,-968.262,-93.75,0,0
1586465089,-69.336,-3.418,-993.164,-73.242,0,0
1586465089,-22.461,-8.301,-958.008,-18.555,0,0
1586465089,-23.926,-11.23,-959.473,-16.113,0,0
1586465089,-62.5,-7.812,-994.629,-62.988,0,0
1586465089,-64.941,-9.766,-998.047,-80.078,0,0
1586465089,-19.531,-15.625,-970.703,-40.527,0,0
1586465089,7.812,-18.066,-970.703,-8.301,0,0
1586465089,-24.414,-20.996,-991.699,-42.969,0,0
1586465089,-39.062,-15.625,-998.535,-76.66,0,0
1586465089,-8.301,-8.301,-982.422,-62.012,0,0
1586465089,0,-15.137,-966.309,-32.227,0,0
1586465089,-26.367,-19.531,-989.258,-45.41,0,0
1586465089,-45.41,-18.555,-1000,-86.914,0,0
1586465089,-17.09,-15.625,-991.211,-55.664,0,0
1586465089,14.648,-19.043,-961.914,-3.418,0,0
1586465089,5.859,-15.137,-964.844,-14.16,0,0
1586465089,-12.207,-5.859,-989.258,-41.992,0,0
1586465089,-10.254,-10.742,-968.262,-80.566,0,0
1586465089,11.719,-19.531,-915.039,-64.453,0,0
1586465089,13.672,-19.531,-902.344,-20.996,0,0
1586465089,-4.395,-16.602,-920.898,-63.477,0,0
1586465089,-13.672,-21.973,-922.363,-92.773,0,0
1586465089,14.648,-25.391,-905.762,-39.062,0,0
1586465089,36.621,-25.879,-889.648,-11.23,0,0
1586465089,-5.371,-34.18,-910.645,-56.641,0,0
1586465089,-31.25,-40.527,-888.672,-55.664,0,0
1586465089,16.602,-38.574,-888.184,-26.367,0,0
1586465089,46.387,-33.203,-888.184,3.906,0,0
1586465089,9.277,-30.273,-799.316,-18.555,0,0
1586465089,-24.902,-49.316,-780.762,-53.223,0,0
1586465089,-0.488,-53.223,-829.102,-30.762,0,0
1586465089,41.992,-38.086,-724.121,-3.906,0,0
1586465089,31.738,-38.574,-585.449,7.324,0,0
1586465089,-3.418,-36.133,-714.844,-25.391,0,0
1586465089,6.348,-31.738,-717.773,-41.016,0,0
1586465089,41.504,-32.715,-496.094,-7.324,0,0
1586465089,69.336,-34.668,-456.543,2.441,0,0
1586465089,34.18,-33.691,-506.836,-47.852,0,0
1586465089,4.883,-35.645,-640.625,-61.523,0,0
1586465089,41.504,-41.016,-406.738,-8.789,0,0
1586465089,61.035,-33.691,156.738,4.395,0,0
1586465089,33.203,-32.227,53.711,-4.883,0,0
1586465089,19.043,-26.367,-215.332,-58.105,0,0
1586465089,47.363,-17.09,73.73,-41.016,0,0
1586465089,71.777,-20.996,432.617,53.711,0,0
1586465089,58.105,-17.09,371.094,3.418,0,0
1586465089,30.762,-16.602,325.684,-56.152,0,0
1586465089,42.969,-24.902,442.383,-35.156,0,0
1586465089,74.219,-26.855,514.648,28.809,0,0
1586465089,49.316,-20.02,492.676,28.809,0,0
1586465089,38.574,-14.648,484.863,-38.574,0,0
1586465089,51.27,-15.625,561.523,-24.414,0,0
1586465089,73.73,-18.555,649.414,24.414,0,0
1586465089,74.707,-29.785,555.664,32.227,0,0
1586465089,21.484,-33.691,535.645,12.207,0,0
1586465089,10.254,-10.254,639.648,-14.648,0,0
1586465089,41.016,-2.441,633.301,20.508,0,0
1586465089,61.523,-0.488,581.055,71.289,0,0
1586465089,29.297,-6.348,562.5,31.738,0,0
1586465089,11.23,-8.789,540.039,-38.086,0,0
1586465089,41.016,2.93,521.973,0.488,0,0
1586465089,78.613,15.625,468.75,50.781,0,0
1586465089,68.359,24.414,418.945,3.906,0,0
1586465089,19.531,10.742,491.211,-36.133,0,0
1586465089,21.484,3.418,494.629,21.973,0,0
1586465089,57.129,9.277,421.875,87.402,0,0
1586465089,57.129,17.09,479.492,31.25,0,0
1586465089,29.297,20.508,520.508,-2.93,0,0
1586465089,12.695,12.207,457.52,-22.461,0,0
1586465089,49.805,-3.418,546.387,-4.883,0,0
1586465089,53.223,0.488,597.168,18.555,0,0
1586465089,2.93,15.137,533.203,-38.574,0,0
1586465089,-9.766,14.648,438.477,-41.016,0,0
1586465089,14.648,18.066,452.637,11.719,0,0
1586465089,29.785,19.531,545.41,16.113,0,0
1586465089,7.812,20.996,537.598,-12.695,0,0
1586465089,-18.066,28.32,250,-39.062,0,0
1586465089,0,26.367,206.543,-37.109,0,0
1586465089,44.922,23.926,398.438,18.066,0,0
1586465089,17.09,20.996,354.98,-5.371,0,0
1586465089,-29.785,17.09,-158.691,-62.5,0,0
1586465089,-21.973,15.137,-527.344,-51.27,0,0
1586465089,4.883,13.672,-273.926,-15.625,0,0
1586465089,12.207,10.742,-410.156,-22.949,0,0
1586465089,-20.02,12.207,-739.258,-70.801,0,0
1586465089,-32.715,9.277,-820.801,-70.312,0,0
1586465089,7.324,0.977,-732.91,1.465,0,0
1586465089,38.086,8.301,-779.297,32.715,0,0
1586465089,-23.438,14.648,-917.48,-43.945,0,0
1586465089,-72.754,11.719,-934.57,-68.359,0,0
1586465089,-16.602,9.766,-890.137,-33.691,0,0
1586465089,7.324,8.301,-877.441,6.348,0,0
1586465089,-21.973,2.93,-927.734,-25.879,0,0
1586465089,-31.738,6.348,-953.125,-59.082,0,0
1586465089,-4.883,22.949,-908.691,-30.762,0,0
1586465089,37.598,15.625,-906.738,-3.906,0,0
1586465089,15.137,1.465,-948.73,-3.906,0,0
1586465089,-32.715,5.371,-924.805,-25.879,0,0
1586465089,-13.672,8.301,-871.094,-25.391,0,0
1586465089,41.016,6.348,-869.629,25.391,0,0
1586465089,29.785,0,-909.668,32.715,0,0
1586465089,-17.578,0,-861.816,-31.25,0,0
1586465089,-9.277,3.906,-900.879,-33.203,0,0
1586465089,38.086,9.277,-895.996,20.02,0,0
1586465089,44.434,8.301,-894.531,40.527,0,0
1586465089,11.23,4.395,-937.5,6.348,0,0
1586465089,-10.742,-2.441,-948.73,-23.926,0,0
1586465089,13.184,1.953,-946.289,7.812,0,0
1586465089,39.551,5.371,-920.41,41.016,0,0
1586465089,18.555,9.277,-904.785,62.012,0,0
1586465089,-22.949,10.254,-942.383,16.602,0,0
1586465089,-5.859,13.184,-936.035,-32.227,0,0
1586465089,52.734,19.531,-836.914,21.484,0,0
1586465089,37.598,17.09,-833.008,40.527,0,0
1586465089,-1.465,22.949,-892.578,3.906,0,0
1586465089,9.277,23.926,-907.715,-7.324,0,0
1586465089,35.156,20.508,-781.738,48.828,0,0
1586465089,49.316,27.344,-717.773,53.223,0,0
1586465089,16.602,28.32,-843.75,17.578,0,0
1586465090,-2.441,23.438,-862.793,1.465,0,0
1586465090,32.227,32.715,-750.488,47.852,0,0
1586465090,49.805,39.551,-594.727,78.613,0,0
1586465090,31.25,42.969,-731.445,36.133,0,0
1586465090,8.301,30.273,-886.23,18.555,0,0
1586465090,29.785,26.855,-629.395,23.438,0,0
1586465090,86.914,43.945,-526.367,36.133,0,0
1586465090,78.613,42.48,-601.074,42.48,0,0
1586465090,33.203,31.738,-708.984,16.113,0,0
1586465090,31.738,22.461,-683.105,25.879,0,0
1586465090,70.801,14.16,-551.27,69.336,0,0
1586465090,88.379,14.648,-519.531,84.473,0,0
1586465090,41.992,11.23,-556.641,29.297,0,0
1586465090,22.949,9.277,-595.215,-20.508,0,0
1586465090,67.383,12.207,-515.137,32.227,0,0
1586465090,84.473,12.207,-421.387,68.848,0,0
1586465090,51.758,6.348,-453.613,34.668,0,0
1586465090,25.391,-10.742,-483.398,24.414,0,0
1586465090,46.875,-4.883,-433.105,33.691,0,0
1586465090,72.754,-3.418,-514.648,51.27,0,0
1586465090,25.391,-15.137,-532.715,35.645,0,0
1586465090,-13.672,-12.207,-493.164,5.371,0,0
1586465090,35.156,-9.766,-520.996,11.719,0,0
1586465090,87.891,-11.719,-465.332,65.43,0,0
1586465090,63.477,-22.461,-457.52,45.898,0,0
1586465090,6.836,-20.02,-591.309,3.418,0,0
1586465090,18.066,-8.301,-666.992,9.277,0,0
1586465090,52.734,-10.254,-493.164,34.668,0,0
1586465090,31.738,-16.113,-295.41,63.477,0,0
1586465090,2.93,-17.578,-388.184,26.367,0,0
1586465090,17.578,-20.996,-553.711,12.207,0,0
1586465090,48.34,-21.973,-450.684,50.781,0,0
1586465090,57.129,-16.113,99.121,54.688,0,0
1586465090,40.039,-18.555,-55.664,20.02,0,0
1586465090,7.324,-31.25,-355.957,11.23,0,0
1586465090,45.41,-24.414,113.77,37.109,0,0
1586465090,103.516,-1.953,372.559,41.504,0,0
1586465090,55.664,1.465,343.262,42.969,0,0
1586465090,7.812,2.441,-44.922,38.574,0,0
1586465090,46.875,7.812,-35.645,17.578,0,0
1586465090,91.797,11.719,540.527,38.086,0,0
1586465090,69.336,3.906,455.078,28.809,0,0
