timestamps,TP9,AF7,AF8,TP10,Right AUX,Marker
1586465452,-41.016,-34.668,-253.906,-94.238,0,0
1586465452,-158.203,-34.668,-179.199,-29.785,0,0
1586465452,-168.945,-35.156,-202.637,-26.367,0,0
1586465452,-55.176,-36.133,-256.836,-83.008,0,0
1586465452,-26.367,-39.551,-295.898,-103.516,0,0
1586465452,-118.652,-41.016,-431.152,-45.898,0,0
1586465452,-159.18,-42.969,-789.551,-11.719,0,0
1586465452,-75.684,-41.504,-740.723,-72.754,0,0
1586465452,-10.254,-35.645,-265.137,-125,0,0
1586465452,-91.797,-32.227,-247.07,-83.008,0,0
1586465452,-173.828,-34.18,-229.492,-37.109,0,0
1586465452,-98.633,-31.25,-125,-70.312,0,0
1586465452,5.859,-32.715,-188.477,-112.793,0,0
1586465452,-47.852,-39.062,-405.762,-88.867,0,0
1586465452,-166.992,-37.109,-382.812,-35.645,0,0
1586465452,-139.16,-34.18,-83.496,-42.969,0,0
1586465452,-27.832,-34.668,-137.207,-104.492,0,0
1586465452,-26.367,-35.645,-606.445,-108.887,0,0
1586465452,-125,-33.203,-768.555,-45.41,0,0
1586465452,-128.418,-27.832,-192.383,-21.973,0,0
1586465452,0,-30.273,-6.836,-68.848,0,0
1586465452,43.945,-34.18,-519.531,-87.891,0,0
1586465452,-50.781,-32.227,-581.543,-36.621,0,0
1586465452,-96.68,-30.273,-39.062,10.254,0,0
1586465452,-0.488,-33.691,-11.23,-24.414,0,0
1586465452,75.195,-30.762,-411.133,-70.312,0,0
1586465452,-3.906,-29.297,-446.777,-41.504,0,0
1586465452,-97.168,-30.273,-72.266,4.883,0,0
1586465452,-34.668,-31.738,-18.555,-19.531,0,0
1586465452,75.195,-32.715,-527.344,-76.66,0,0
1586465452,25.391,-31.25,-700.195,-62.5,0,0
1586465452,-96.68,-35.156,-252.93,-8.789,0,0
1586465452,-68.848,-35.156,-118.164,-5.859,0,0
1586465452,48.34,-32.715,-642.09,-71.289,0,0
1586465452,46.387,-34.18,-662.598,-101.562,0,0
1586465452,-69.336,-39.551,-158.203,-49.805,0,0
1586465452,-97.656,-43.945,-240.234,-23.926,0,0
1586465452,2.441,-41.016,-517.09,-65.43,0,0
1586465452,41.016,-36.133,-439.453,-95.215,0,0
1586465452,-48.828,-31.738,-222.168,-51.758,0,0
1586465452,-108.887,-31.738,-223.145,-9.277,0,0
1586465452,-24.902,-34.668,-549.316,-49.316,0,0
1586465452,51.27,-33.203,-590.332,-93.262,0,0
1586465452,-26.367,-30.762,-242.676,-64.453,0,0
1586465452,-136.23,-35.156,-411.621,-23.438,0,0
1586465452,-87.402,-32.715,-731.445,-46.387,0,0
1586465452,32.715,-28.809,-397.949,-102.051,0,0
1586465452,-1.465,-30.762,-291.504,-101.074,0,0
1586465452,-121.582,-28.809,-352.051,-41.504,0,0
1586465452,-113.281,-28.32,-201.172,-30.762,0,0
1586465452,0.977,-26.367,-137.207,-92.773,0,0
1586465452,9.766,-26.855,-312.012,-118.164,0,0
1586465452,-114.258,-24.902,-521.484,-66.895,0,0
1586465452,-151.367,-27.344,-541.504,-49.805,0,0
1586465452,-43.945,-27.344,-400.879,-97.656,0,0
1586465452,4.883,-27.344,-353.027,-143.066,0,0
1586465452,-91.797,-30.273,-745.605,-110.84,0,0
1586465452,-164.062,-32.227,-567.383,-70.801,0,0
1586465452,-78.125,-36.133,3.418,-105.469,0,0
1586465452,9.277,-32.715,-302.734,-142.09,0,0
1586465452,-58.105,-27.344,-469.727,-118.652,0,0
1586465452,-154.785,-27.832,-140.625,-70.312,0,0
1586465452,-108.887,-27.832,56.152,-83.008,0,0
1586465452,0.977,-29.297,-236.816,-146.973,0,0
1586465452,-19.531,-28.809,-458.496,-142.578,0,0
1586465452,-124.512,-28.32,-284.668,-62.5,0,0
1586465452,-114.746,-31.25,-266.602,-35.645,0,0
1586465452,-16.602,-35.645,-577.637,-93.262,0,0
1586465452,-3.906,-30.762,-883.301,-110.352,0,0
1586465452,-107.422,-29.785,-365.234,-57.129,0,0
1586465452,-147.461,-35.156,83.496,-23.438,0,0
1586465452,-49.316,-38.086,-220.215,-57.617,0,0
1586465452,15.137,-37.109,-384.766,-86.914,0,0
1586465452,-72.754,-34.18,-117.676,-31.25,0,0
1586465452,-168.457,-35.645,16.602,19.043,0,0
1586465452,-92.285,-34.18,-218.75,-13.184,0,0
1586465452,16.602,-31.738,-414.551,-82.031,0,0
1586465452,-34.18,-33.691,-466.797,-84.961,0,0
1586465452,-142.09,-33.203,-369.629,-27.344,0,0
1586465452,-108.887,-32.715,-616.211,-29.785,0,0
1586465452,8.789,-33.691,-626.953,-82.031,0,0
1586465452,-4.395,-31.25,-222.168,-83.496,0,0
1586465452,-124.512,-25.879,-365.723,-26.367,0,0
1586465452,-134.277,-26.855,-305.176,-17.09,0,0
1586465452,-12.207,-24.414,-131.836,-71.289,0,0
1586465452,26.367,-22.461,-158.691,-85.938,0,0
1586465452,-83.496,-25.879,-308.105,-26.367,0,0
1586465452,-134.766,-24.902,-268.555,2.441,0,0
1586465452,-31.25,-27.344,-92.285,-51.27,0,0
1586465452,37.598,-31.738,-357.422,-104.492,0,0
1586465452,-47.852,-34.668,-726.074,-86.426,0,0
1586465452,-133.301,-31.738,-804.688,-34.18,0,0
1586465452,-64.941,-32.715,-295.41,-49.316,0,0
1586465452,41.504,-37.109,-153.809,-107.422,0,0
1586465452,-3.906,-37.109,-464.844,-97.168,0,0
1586465452,-114.258,-39.551,-300.781,-46.387,0,0
1586465452,-89.355,-41.504,-17.09,-59.082,0,0
1586465452,24.414,-40.527,-276.855,-119.141,0,0
1586465452,19.531,-38.574,-609.863,-124.512,0,0
1586465452,-99.121,-39.062,-352.051,-59.082,0,0
1586465452,-123.535,-41.504,-50.293,-37.109,0,0
1586465452,-9.766,-43.945,-327.637,-104.492,0,0
1586465452,33.203,-41.504,-852.051,-144.531,0,0
1586465452,-66.406,-37.109,-709.961,-94.727,0,0
1586465452,-126.465,-35.156,-50.781,-51.758,0,0
1586465452,-31.738,-35.645,-114.258,-85.449,0,0
1586465452,52.734,-33.691,-505.859,-138.672,0,0
1586465452,-26.855,-30.273,-399.902,-115.234,0,0
1586465452,-126.465,-28.809,-87.891,-55.176,0,0
1586465452,-76.172,-28.809,-211.426,-66.895,0,0
1586465452,20.02,-30.273,-502.441,-133.789,0,0
1586465452,-15.625,-32.715,-416.016,-140.625,0,0
1586465452,-125.488,-34.18,-340.332,-74.219,0,0
1586465452,-107.422,-31.738,-485.84,-59.082,0,0
1586465452,15.625,-30.273,-658.691,-124.023,0,0
1586465452,25.879,-29.785,-456.543,-141.602,0,0
1586465452,-84.473,-29.785,-150.879,-76.66,0,0
1586465452,-110.352,-28.32,-460.449,-43.945,0,0
1586465452,-3.906,-25.879,-829.59,-100.586,0,0
1586465452,49.316,-22.461,-508.301,-130.371,0,0
1586465452,-39.551,-22.949,-285.645,-77.148,0,0
1586465452,-106.445,-21.973,-330.566,-30.762,0,0
1586465452,-22.461,-19.531,-304.199,-60.547,0,0
1586465452,74.219,-22.461,-264.648,-103.516,0,0
1586465452,15.625,-27.344,-319.824,-56.152,0,0
1586465452,-111.328,-31.738,-447.266,-14.16,0,0
1586465452,-90.82,-36.133,-452.148,-55.176,0,0
1586465452,31.25,-37.109,-469.238,-105.957,0,0
1586465452,4.395,-37.109,-497.07,-101.074,0,0
1586465452,-119.141,-38.574,-763.672,-20.996,0,0
1586465452,-124.023,-40.527,-614.746,-3.906,0,0
1586465452,-14.648,-40.527,-137.695,-67.871,0,0
1586465452,9.277,-38.574,-433.594,-79.102,0,0
1586465452,-98.633,-44.922,-603.027,-17.578,0,0
1586465452,-132.812,-45.898,-191.406,20.996,0,0
1586465452,-27.344,-45.41,-23.926,-33.203,0,0
1586465452,36.133,-46.387,-432.617,-72.754,0,0
1586465452,-51.27,-46.387,-678.711,-26.367,0,0
1586465452,-133.301,-44.922,-335.938,21.484,0,0
1586465452,-54.199,-40.039,-23.926,-16.602,0,0
1586465452,43.945,-37.109,-480.957,-76.172,0,0
1586465452,-15.137,-33.691,-855.957,-61.523,0,0
1586465452,-120.605,-31.738,-413.574,-15.137,0,0
1586465452,-79.102,-34.668,-183.105,-33.691,0,0
1586465452,37.598,-29.785,-344.238,-95.703,0,0
1586465452,16.602,-31.738,-406.25,-101.562,0,0
1586465452,-104.004,-40.039,-179.199,-40.039,0,0
1586465452,-117.188,-41.992,-68.848,-21.973,0,0
1586465452,-2.441,-36.621,-292.969,-75.684,0,0
1586465452,34.668,-38.086,-614.746,-105.469,0,0
1586465452,-68.359,-38.574,-434.57,-50.293,0,0
1586465452,-112.793,-37.598,-72.266,-6.348,0,0
1586465452,-16.113,-39.062,-580.566,-36.621,0,0
1586465452,47.363,-36.133,-757.324,-76.172,0,0
1586465452,-39.062,-38.086,-220.215,-61.035,0,0
1586465452,-127.93,-38.086,-183.594,-8.789,0,0
1586465452,-63.477,-34.668,-251.465,-25.879,0,0
1586465452,55.176,-33.203,-409.18,-74.707,0,0
1586465452,23.926,-30.273,-447.266,-51.758,0,0
1586465452,-102.539,-27.832,-278.809,-15.137,0,0
1586465452,-109.375,-36.133,-270.02,-53.223,0,0
1586465452,-10.742,-42.48,-446.777,-118.164,0,0
1586465452,-27.832,-41.504,-488.281,-146.484,0,0
1586465452,-157.715,-42.969,-475.586,-125,0,0
1586465452,-176.758,-41.016,-667.969,-106.934,0,0
1586465452,-71.777,-41.992,-282.715,-162.109,0,0
1586465452,-29.297,-45.898,-165.039,-191.895,0,0
1586465452,-135.742,-42.48,-403.809,-154.297,0,0
1586465452,-201.66,-42.48,-232.91,-122.559,0,0
1586465452,-102.051,-43.945,21.973,-152.344,0,0
1586465452,-11.719,-46.387,-194.824,-188.965,0,0
1586465452,-82.031,-47.363,-396.484,-160.645,0,0
1586465452,-170.41,-45.898,-284.18,-107.422,0,0
1586465452,-100.586,-48.828,-295.898,-109.375,0,0
1586465452,8.789,-47.363,-467.285,-160.156,0,0
1586465452,-31.25,-42.48,-795.898,-139.648,0,0
1586465452,-141.602,-40.039,-600.098,-62.988,0,0
1586465452,-122.559,-42.48,80.566,-61.035,0,0
1586465452,-6.836,-46.875,-73.242,-122.559,0,0
1586465452,1.465,-45.898,-458.984,-137.695,0,0
1586465452,-113.77,-41.504,-225.098,-77.637,0,0
1586465452,-140.137,-41.016,62.988,-40.527,0,0
1586465452,-31.738,-43.945,-206.543,-81.543,0,0
1586465452,17.578,-41.992,-462.891,-124.512,0,0
1586465452,-75.684,-41.504,-222.168,-83.984,0,0
1586465452,-140.137,-41.016,-164.551,-35.156,0,0
1586465452,-44.922,-38.086,-502.93,-56.152,0,0
1586465452,41.504,-38.086,-929.688,-91.309,0,0
1586465452,-28.32,-34.668,-635.742,-58.594,0,0
1586465452,-124.023,-30.273,-142.578,9.277,0,0
1586465452,-70.312,-29.785,-251.465,-2.441,0,0
1586465452,35.156,-30.762,-367.188,-74.707,0,0
1586465452,8.789,-27.344,-272.461,-83.984,0,0
1586465452,-101.562,-26.855,-137.207,-30.273,0,0
1586465452,-96.68,-33.203,-177.246,-15.625,0,0
1586465452,23.926,-37.598,-235.352,-62.012,0,0
1586465452,39.062,-33.691,-297.852,-86.426,0,0
1586465452,-73.242,-31.25,-435.059,-53.711,0,0
1586465452,-104.98,-29.297,-739.746,-41.992,0,0
1586465452,3.418,-27.832,-720.215,-93.262,0,0
1586465452,65.918,-31.25,-298.34,-144.043,0,0
1586465452,-28.32,-34.18,-245.605,-109.863,0,0
1586465452,-103.027,-34.668,-298.34,-58.105,0,0
1586465452,-26.367,-33.203,-262.207,-85.938,0,0
1586465452,65.43,-30.273,-168.945,-138.184,0,0
1586465452,7.812,-33.203,-324.707,-115.234,0,0
1586465452,-98.633,-35.645,-334.961,-53.223,0,0
1586465452,-56.641,-35.156,-108.398,-64.941,0,0
1586465452,58.105,-37.598,-112.305,-132.812,0,0
1586465452,38.086,-39.062,-545.41,-134.766,0,0
1586465452,-83.008,-39.062,-745.117,-70.801,0,0
1586465452,-96.68,-37.109,-172.852,-46.875,0,0
1586465452,21.484,-39.062,-64.453,-100.098,0,0
1586465452,52.734,-35.645,-502.441,-125.488,0,0
1586465452,-56.152,-31.738,-452.637,-69.824,0,0
1586465452,-102.539,-34.18,-6.348,-33.203,0,0
1586465453,7.324,-32.715,-62.5,-77.148,0,0
1586465453,73.242,-31.25,-569.824,-119.141,0,0
1586465453,-16.602,-30.273,-657.227,-86.426,0,0
1586465453,-97.656,-28.809,-177.734,-41.016,0,0
1586465453,-25.879,-31.738,-57.617,-71.777,0,0
1586465453,72.754,-32.715,-544.434,-129.395,0,0
1586465453,17.578,-33.203,-787.109,-107.422,0,0
1586465453,-94.727,-34.18,-300.293,-46.387,0,0
1586465453,-63.477,-28.32,-115.723,-41.016,0,0
1586465453,50.781,-22.949,-667.969,-95.703,0,0
1586465453,38.574,-24.902,-700.195,-116.699,0,0
1586465453,-84.961,-29.297,-244.629,-66.406,0,0
1586465453,-110.352,-33.203,-258.789,-41.504,0,0
1586465453,4.395,-35.645,-450.684,-86.914,0,0
1586465453,49.316,-33.203,-390.137,-108.398,0,0
1586465453,-53.711,-31.25,-186.523,-52.246,0,0
1586465453,-110.352,-30.762,-270.508,-12.695,0,0
1586465453,-22.461,-31.25,-562.012,-51.27,0,0
1586465453,55.664,-32.715,-647.949,-96.68,0,0
1586465453,-17.09,-31.25,-470.703,-69.336,0,0
1586465453,-110.352,-34.668,-444.824,-13.184,0,0
1586465453,-52.246,-36.621,-514.16,-42.969,0,0
1586465453,58.594,-34.668,-349.121,-108.887,0,0
1586465453,22.461,-36.621,-281.738,-100.098,0,0
1586465453,-100.098,-37.109,-595.703,-47.363,0,0
1586465453,-87.402,-36.133,-773.926,-45.898,0,0
1586465453,27.344,-32.227,-369.629,-96.68,0,0
1586465453,30.762,-32.715,-394.531,-101.074,0,0
1586465453,-95.215,-36.133,-480.469,-42.48,0,0
1586465453,-133.789,-40.039,-458.496,-18.066,0,0
1586465453,-17.578,-42.969,-390.625,-76.66,0,0
1586465453,31.738,-37.598,-381.348,-111.816,0,0
1586465453,-66.406,-38.574,-789.551,-61.523,0,0
1586465453,-128.906,-36.133,-589.355,-20.02,0,0
1586465453,-30.762,-29.785,-67.871,-54.688,0,0
1586465453,63.477,-30.273,-349.121,-93.75,0,0
1586465453,-24.902,-31.25,-590.332,-72.266,0,0
1586465453,-127.93,-27.344,-274.414,-15.137,0,0
1586465453,-67.871,-28.809,-8.301,-1.465,0,0
1586465453,36.133,-35.156,-340.332,-38.086,0,0
1586465453,4.395,-38.086,-594.238,-12.207,0,0
1586465453,-114.746,-37.598,-457.52,41.016,0,0
1586465453,-107.91,-37.598,-321.289,26.855,0,0
1586465453,14.16,-38.086,-555.664,-39.551,0,0
1586465453,34.668,-36.621,-856.445,-61.523,0,0
1586465453,-70.312,-29.297,-339.844,-6.348,0,0
1586465453,-109.375,-30.762,-46.387,31.738,0,0
1586465453,-5.859,-36.621,-391.602,-9.277,0,0
1586465453,54.688,-35.645,-510.254,-56.152,0,0
1586465453,-41.992,-32.227,-253.418,-27.344,0,0
1586465453,-120.605,-31.738,-69.336,26.855,0,0
1586465453,-42.48,-32.227,-236.816,4.883,0,0
1586465453,50.781,-38.574,-378.906,-47.852,0,0
1586465453,-10.254,-43.457,-461.426,-34.668,0,0
1586465453,-120.117,-43.457,-417.48,13.672,0,0
1586465453,-82.031,-43.945,-640.625,5.859,0,0
1586465453,29.297,-38.086,-783.691,-47.852,0,0
1586465453,10.254,-39.062,-309.082,-50.781,0,0
1586465453,-106.445,-39.551,-158.691,10.254,0,0
1586465453,-115.234,-38.574,-240.723,16.113,0,0
1586465453,-1.465,-39.062,-257.324,-48.828,0,0
1586465453,25.391,-35.156,-260.254,-66.406,0,0
1586465453,-80.078,-35.645,-429.688,-10.742,0,0
1586465453,-125.977,-32.715,-303.223,26.855,0,0
1586465453,-27.832,-31.25,-52.246,-13.672,0,0
1586465453,36.621,-32.227,-343.262,-50.781,0,0
1586465453,-45.898,-30.273,-722.656,9.277,0,0
1586465453,-131.348,-28.809,-719.727,105.957,0,0
1586465453,-63.965,-25.879,-187.012,122.07,0,0
1586465453,43.457,-25.391,-83.496,62.5,0,0
1586465453,-8.789,-23.438,-381.836,67.871,0,0
1586465453,-117.676,-25.879,-252.93,133.301,0,0
1586465453,-84.961,-31.25,39.062,106.934,0,0
1586465453,21.973,-37.109,-120.117,53.223,0,0
1586465453,11.23,-39.062,-484.375,79.102,0,0
1586465453,-96.68,-30.273,-321.777,134.277,0,0
1586465453,-107.422,-32.227,-36.133,129.883,0,0
1586465453,-2.441,-36.621,-210.938,68.359,0,0
1586465453,32.715,-38.086,-756.348,44.922,0,0
1586465453,-68.848,-35.156,-753.906,100.586,0,0
1586465453,-125.488,-38.574,-80.566,130.859,0,0
1586465453,-31.25,-44.922,-121.094,85.449,0,0
1586465453,42.969,-37.109,-443.848,49.805,0,0
1586465453,-36.621,-35.645,-282.715,92.285,0,0
1586465453,-127.441,-41.504,32.227,165.039,0,0
1586465453,-64.453,-39.062,-95.215,154.785,0,0
1586465453,38.574,-38.086,-508.789,100.098,0,0
1586465453,-0.977,-37.598,-409.668,112.305,0,0
1586465453,-117.188,-36.621,-62.988,175.781,0,0
1586465453,-96.191,-38.086,-326.172,174.805,0,0
1586465453,25.391,-40.039,-747.07,102.539,0,0
1586465453,26.855,-37.109,-424.316,76.66,0,0
1586465453,-83.984,-37.109,-264.648,137.207,0,0
1586465453,-101.074,-37.598,-428.223,164.551,0,0
1586465453,19.531,-37.109,-404.297,113.77,0,0
1586465453,67.383,-36.133,-304.199,80.566,0,0
1586465453,-35.156,-34.668,-257.812,118.652,0,0
1586465453,-102.051,-37.598,-384.766,155.273,0,0
1586465453,-17.09,-36.621,-336.914,110.352,0,0
1586465453,64.941,-33.203,-253.906,64.941,0,0
1586465453,-6.348,-33.691,-329.102,109.863,0,0
1586465453,-103.027,-36.621,-462.891,165.527,0,0
1586465453,-54.688,-34.18,-435.547,133.789,0,0
1586465453,50.781,-32.715,-212.402,62.988,0,0
1586465453,26.367,-36.621,-297.852,63.477,0,0
1586465453,-74.707,-38.574,-610.84,137.695,0,0
1586465453,-71.777,-26.855,-426.758,142.09,0,0
1586465453,27.344,-25.391,-283.203,62.012,0,0
1586465453,43.945,-30.762,-622.559,50.293,0,0
1586465453,-56.641,-24.414,-473.633,125.488,0,0
1586465453,-77.637,-19.531,-7.324,168.457,0,0
1586465453,48.34,-17.578,79.59,122.559,0,0
1586465453,113.77,-15.625,-294.434,98.633,0,0
1586465453,24.902,-13.672,-531.25,148.926,0,0
1586465453,-51.27,-16.602,-323.242,179.688,0,0
1586465453,26.367,-17.09,-26.855,138.184,0,0
1586465453,120.605,-20.02,-408.691,107.91,0,0
1586465453,59.082,-18.066,-857.422,145.996,0,0
1586465453,-47.363,-7.324,-230.957,184.57,0,0
1586465453,-7.812,-13.672,95.703,163.574,0,0
1586465453,110.84,-17.09,-314.453,116.699,0,0
1586465453,86.426,-10.742,-420.898,110.352,0,0
1586465453,-38.574,-14.648,-261.23,137.695,0,0
1586465453,-46.875,-19.043,-284.18,125.977,0,0
1586465453,69.336,-17.578,-344.727,62.5,0,0
1586465453,92.773,-19.531,-523.438,41.016,0,0
1586465453,-22.949,-23.926,-406.738,101.562,0,0
1586465453,-59.57,-20.02,-39.551,146.484,0,0
1586465453,41.992,-19.043,-541.992,105.957,0,0
1586465453,103.516,-20.02,-747.07,66.406,0,0
1586465453,16.113,-22.949,-150.879,106.934,0,0
1586465453,-70.312,-22.461,-96.68,159.668,0,0
1586465453,3.418,-20.508,-233.398,130.859,0,0
1586465453,100.098,-18.555,-196.289,77.148,0,0
1586465453,41.992,-19.043,-82.52,89.844,0,0
1586465453,-71.777,-26.855,-139.648,132.324,0,0
1586465453,-35.156,-29.297,-311.035,114.258,0,0
1586465453,78.613,-25.879,-415.527,54.688,0,0
1586465453,63.965,-23.926,-521.484,53.711,0,0
1586465453,-54.199,-27.344,-592.773,112.305,0,0
1586465453,-73.73,-25.391,-630.859,122.07,0,0
1586465453,31.25,-26.855,-311.523,47.363,0,0
1586465453,66.406,-29.785,-255.371,11.23,0,0
1586465453,-38.574,-29.785,-347.168,55.176,0,0
1586465453,-100.098,-32.227,-162.598,88.379,0,0
1586465453,0,-29.785,1.953,56.641,0,0
1586465453,74.707,-28.809,-158.691,18.066,0,0
1586465453,-10.254,-27.832,-326.172,48.34,0,0
1586465453,-101.074,-27.344,-155.273,90.82,0,0
1586465453,-41.016,-31.738,-209.473,57.129,0,0
1586465453,67.383,-31.738,-491.211,-2.441,0,0
1586465453,23.926,-32.227,-805.176,1.953,0,0
1586465453,-94.238,-32.715,-744.629,53.711,0,0
1586465453,-66.406,-28.32,-221.68,50.781,0,0
1586465453,54.688,-27.344,-254.883,-18.555,0,0
1586465453,57.129,-25.879,-458.984,-38.086,0,0
1586465453,-62.5,-27.344,-250.977,21.484,0,0
1586465453,-90.82,-30.762,-4.883,29.785,0,0
1586465453,22.949,-31.25,-202.637,-38.574,0,0
1586465453,64.941,-30.762,-478.027,-67.871,0,0
1586465453,-38.086,-31.25,-289.551,-34.18,0,0
1586465453,-106.445,-32.715,-252.93,1.953,0,0
1586465453,-20.02,-35.156,-589.355,-16.602,0,0
1586465453,59.57,-34.18,-785.156,-58.594,0,0
1586465453,-18.555,-33.203,-356.445,-46.387,0,0
1586465453,-117.676,-32.715,64.941,-0.977,0,0
1586465453,-62.988,-31.25,-300.781,-18.066,0,0
1586465453,48.828,-30.273,-898.438,-66.895,0,0
1586465453,14.648,-27.832,-647.949,-55.664,0,0
1586465453,-104.492,-28.809,-262.695,0.977,0,0
1586465453,-99.609,-27.344,-224.609,0.977,0,0
1586465453,15.137,-27.344,-317.383,-64.941,0,0
1586465453,29.785,-30.273,-338.379,-86.914,0,0
1586465453,-84.473,-31.738,-303.223,-43.457,0,0
1586465453,-104.98,-32.715,-647.461,-7.812,0,0
1586465453,8.789,-34.18,-720.215,-44.922,0,0
1586465453,37.598,-35.156,-303.223,-106.445,0,0
1586465453,-81.055,-36.133,-312.988,-93.262,0,0
1586465453,-152.344,-35.645,-281.25,-56.641,0,0
1586465453,-56.152,-36.133,-133.789,-85.449,0,0
1586465453,34.18,-37.598,-168.457,-138.184,0,0
1586465453,-34.18,-39.062,-375,-108.398,0,0
1586465453,-133.789,-43.457,-485.84,-41.992,0,0
1586465453,-86.426,-40.527,-330.566,-48.828,0,0
1586465453,22.461,-36.621,-229.004,-115.234,0,0
1586465453,-4.883,-39.551,-617.676,-120.117,0,0
1586465453,-109.863,-37.598,-804.199,-65.43,0,0
1586465453,-95.215,-33.203,-286.621,-82.031,0,0
1586465453,23.438,-30.273,-138.672,-143.555,0,0
1586465453,42.48,-34.18,-529.785,-144.043,0,0
1586465453,-68.359,-38.086,-515.625,-101.074,0,0
1586465453,-101.562,-35.156,-111.328,-89.844,0,0
1586465453,6.348,-34.18,-156.738,-137.207,0,0
1586465453,71.289,-31.25,-457.031,-184.082,0,0
1586465453,-22.461,-29.785,-458.008,-153.32,0,0
1586465453,-119.141,-31.25,-159.668,-89.844,0,0
1586465453,-42.969,-31.25,-206.543,-112.305,0,0
1586465453,63.477,-28.32,-651.855,-178.223,0,0
1586465453,1.953,-28.32,-773.438,-166.992,0,0
1586465453,-107.422,-31.25,-390.137,-119.629,0,0
1586465453,-72.266,-33.691,-124.023,-130.371,0,0
1586465453,36.621,-32.227,-617.188,-186.035,0,0
1586465453,22.461,-27.832,-715.82,-206.055,0,0
1586465453,-84.961,-28.809,-165.039,-163.574,0,0
1586465453,-94.238,-35.645,-145.02,-143.066,0,0
1586465453,11.23,-39.551,-386.719,-179.688,0,0
1586465453,43.945,-32.715,-400.879,-187.012,0,0
1586465453,-67.383,-37.598,-258.789,-129.395,0,0
1586465453,-128.906,-45.41,-233.887,-104.492,0,0
1586465453,-32.227,-41.504,-505.371,-150.391,0,0
1586465453,37.598,-40.039,-562.988,-174.805,0,0
1586465453,-48.828,-41.992,-230.469,-146.484,0,0
1586465453,-129.395,-43.945,-358.398,-114.746,0,0
1586465453,-58.594,-43.945,-746.582,-139.648,0,0
1586465453,45.898,-38.086,-389.648,-191.895,0,0
1586465453,1.953,-37.598,-198.242,-179.199,0,0
1586465453,-105.957,-41.016,-303.711,-109.863,0,0
1586465453,-73.242,-38.574,-201.66,-108.398,0,0
1586465453,41.992,-36.621,-127.93,-163.086,0,0
1586465453,36.133,-40.039,-232.91,-145.508,0,0
1586465453,-74.219,-39.062,-304.199,-80.566,0,0
1586465453,-92.773,-35.645,-313.965,-49.316,0,0
1586465453,13.184,-35.645,-411.621,-83.008,0,0
1586465453,52.246,-32.715,-364.258,-111.328,0,0
1586465453,-54.688,-35.645,-673.34,-63.477,0,0
1586465453,-114.258,-35.156,-595.703,-24.902,0,0
1586465453,-19.043,-33.691,-4.395,-64.941,0,0
1586465453,59.57,-36.621,-286.621,-112.793,0,0
1586465453,-6.348,-35.645,-520.02,-79.59,0,0
1586465453,-92.773,-35.645,-140.625,-21.484,0,0
1586465453,-41.992,-38.574,62.012,-41.992,0,0
1586465453,54.199,-41.504,-328.125,-103.516,0,0
1586465453,14.16,-41.504,-555.176,-97.656,0,0
1586465453,-104.98,-46.387,-347.168,-46.875,0,0
1586465453,-83.984,-41.992,-285.645,-43.945,0,0
1586465453,39.551,-36.133,-601.074,-94.727,0,0
1586465453,41.992,-39.551,-867.676,-111.328,0,0
1586465453,-70.312,-36.133,-340.82,-52.246,0,0
1586465453,-93.75,-32.715,57.129,-4.395,0,0
1586465453,13.184,-33.203,-231.445,-42.48,0,0
1586465453,62.988,-29.297,-433.105,-73.73,0,0
1586465453,-29.297,-31.25,-222.656,-32.715,0,0
1586465453,-100.586,-33.203,-85.449,-8.301,0,0
1586465453,-20.996,-30.762,-287.598,-50.781,0,0
1586465453,64.941,-31.25,-428.223,-93.75,0,0
1586465453,-6.836,-32.227,-472.656,-68.359,0,0
1586465453,-113.77,-35.156,-315.918,-2.93,0,0
1586465453,-51.758,-36.133,-597.168,7.324,0,0
1586465453,65.918,-32.227,-771.484,-54.688,0,0
1586465453,27.832,-32.715,-255.859,-72.266,0,0
1586465453,-85.938,-37.109,-179.688,-13.672,0,0
1586465453,-83.008,-39.551,-231.934,4.883,0,0
1586465453,27.832,-36.133,-253.906,-45.898,0,0
1586465453,51.758,-33.691,-246.582,-59.57,0,0
1586465453,-67.383,-30.762,-310.059,-17.09,0,0
1586465453,-119.141,-34.668,-296.875,-8.789,0,0
1586465454,-20.996,-43.457,-143.555,-62.012,0,0
1586465454,36.133,-41.992,-431.641,-87.891,0,0
1586465454,-47.852,-39.551,-715.82,-23.926,0,0
1586465454,-123.535,-40.527,-763.672,41.016,0,0
1586465454,-53.711,-37.109,-312.012,17.09,0,0
1586465454,37.598,-34.18,-118.652,-34.18,0,0
1586465454,-25.879,-38.086,-436.523,-16.113,0,0
1586465454,-135.742,-40.527,-336.914,36.621,0,0
1586465454,-88.379,-38.574,-12.207,41.016,0,0
1586465454,26.367,-36.133,-137.695,-7.324,0,0
1586465454,14.648,-31.738,-451.172,-9.766,0,0
1586465454,-98.145,-28.809,-316.895,50.781,0,0
1586465454,-103.027,-27.832,-63.477,65.43,0,0
1586465454,17.578,-26.367,-302.734,10.254,0,0
1586465454,40.039,-29.785,-825.684,-12.695,0,0
1586465454,-70.801,-27.832,-715.82,34.668,0,0
1586465454,-124.512,-22.949,-129.883,49.316,0,0
1586465454,-32.227,-26.855,-301.758,-6.348,0,0
1586465454,44.434,-32.715,-513.184,-48.828,0,0
1586465454,-34.18,-30.762,-336.426,-8.789,0,0
1586465454,-120.117,-29.785,-145.508,47.363,0,0
1586465454,-50.781,-28.809,-242.188,26.855,0,0
1586465454,50.781,-22.949,-551.758,-24.414,0,0
1586465454,4.395,-23.926,-393.066,-3.906,0,0
1586465454,-101.562,-24.902,-86.914,48.828,0,0
1586465454,-71.777,-27.344,-340.332,31.25,0,0
1586465454,42.48,-29.297,-818.848,-41.992,0,0
1586465454,40.527,-26.367,-545.898,-58.594,0,0
1586465454,-77.637,-29.297,-123.047,5.371,0,0
1586465454,-94.727,-31.25,-238.77,37.109,0,0
1586465454,13.672,-31.25,-361.328,-1.465,0,0
1586465454,48.828,-26.855,-285.156,-12.695,0,0
1586465454,-59.082,-26.367,-433.105,47.363,0,0
1586465454,-119.629,-30.762,-417.969,101.074,0,0
1586465454,-20.02,-28.32,-203.613,70.312,0,0
1586465454,60.059,-33.203,-192.871,19.043,0,0
1586465454,-17.578,-36.621,-307.617,34.668,0,0
1586465454,-117.676,-39.551,-458.984,76.66,0,0
1586465454,-58.105,-40.039,-487.305,56.641,0,0
1586465454,51.758,-36.133,-341.309,-4.883,0,0
1586465454,6.348,-36.621,-316.895,0.488,0,0
1586465454,-109.863,-33.203,-627.441,67.383,0,0
1586465454,-92.285,-30.273,-459.473,70.801,0,0
1586465454,26.855,-30.273,-117.188,2.441,0,0
1586465454,38.574,-27.344,-333.496,-11.719,0,0
1586465454,-79.102,-28.809,-333.496,41.504,0,0
1586465454,-109.863,-34.18,-50.781,68.359,0,0
1586465454,10.254,-38.086,-209.961,28.32,0,0
1586465454,68.848,-35.156,-629.395,-5.859,0,0
1586465454,-44.434,-34.18,-729.004,26.367,0,0
1586465454,-114.746,-30.273,-393.555,77.148,0,0
1586465454,-26.367,-26.855,-116.211,45.41,0,0
1586465454,65.918,-29.297,-573.73,-8.301,0,0
1586465454,-7.324,-27.832,-878.418,5.371,0,0
1586465454,-120.117,-30.762,-302.246,46.875,0,0
1586465454,-60.547,-36.133,36.621,45.898,0,0
1586465454,52.246,-36.621,-319.336,5.371,0,0
1586465454,25.391,-31.25,-492.676,6.836,0,0
1586465454,-90.332,-33.203,-163.574,62.012,0,0
1586465454,-90.332,-39.551,-34.668,72.754,0,0
1586465454,22.461,-39.551,-353.516,11.719,0,0
1586465454,34.668,-34.668,-691.406,-0.488,0,0
1586465454,-78.125,-34.668,-584.961,52.246,0,0
1586465454,-109.863,-37.109,-324.707,72.266,0,0
1586465454,-8.789,-33.691,-421.387,23.438,0,0
1586465454,43.457,-32.715,-447.754,-21.973,0,0
1586465454,-46.875,-34.668,-245.605,3.418,0,0
1586465454,-121.094,-32.715,-193.359,38.086,0,0
1586465454,-42.48,-34.18,-625.488,0.977,0,0
1586465454,49.316,-34.18,-654.785,-52.734,0,0
1586465454,-5.371,-30.273,-205.566,-34.668,0,0
1586465454,-104.98,-27.344,-199.707,21.484,0,0
1586465454,-63.965,-31.25,-266.113,15.137,0,0
1586465454,49.805,-35.156,-422.852,-41.992,0,0
1586465454,31.738,-33.203,-548.828,-52.246,0,0
1586465454,-80.078,-32.227,-633.301,-1.465,0,0
1586465454,-87.402,-31.738,-767.09,7.812,0,0
1586465454,22.949,-34.18,-543.457,-48.34,0,0
1586465454,54.199,-34.18,-420.898,-62.5,0,0
1586465454,-61.523,-30.762,-352.051,-8.789,0,0
1586465454,-115.723,-35.156,-157.227,19.043,0,0
1586465454,-7.812,-33.203,-83.984,-35.645,0,0
1586465454,59.082,-31.25,-287.598,-96.191,0,0
1586465454,-27.344,-32.715,-406.25,-63.477,0,0
1586465454,-114.746,-32.715,-227.539,-2.93,0,0
1586465454,-41.504,-38.086,-242.676,-19.531,0,0
1586465454,62.012,-38.086,-473.145,-78.125,0,0
1586465454,6.836,-36.133,-832.031,-67.871,0,0
1586465454,-107.91,-35.645,-619.629,-4.883,0,0
1586465454,-78.613,-35.645,40.039,-7.324,0,0
1586465454,44.434,-35.645,-194.336,-58.105,0,0
1586465454,36.621,-35.156,-473.633,-71.777,0,0
1586465454,-78.613,-35.645,-328.125,-24.414,0,0
1586465454,-86.914,-32.715,-122.07,0,0,0
1586465454,29.785,-32.227,-225.098,-50.781,0,0
1586465454,64.941,-34.18,-447.266,-81.055,0,0
1586465454,-44.434,-29.785,-222.168,-30.273,0,0
1586465454,-104.004,-27.344,-161.621,7.812,0,0
1586465454,-8.789,-29.297,-459.961,-23.926,0,0
1586465454,68.359,-32.715,-808.105,-53.223,0,0
1586465454,-11.23,-35.645,-432.129,-13.184,0,0
1586465454,-102.051,-37.109,17.578,44.434,0,0
1586465454,-41.016,-33.203,-109.375,20.508,0,0
1586465454,57.129,-30.273,-249.023,-40.039,0,0
1586465454,15.625,-29.297,-170.41,-30.762,0,0
1586465454,-102.539,-30.273,-45.898,25.879,0,0
1586465454,-91.309,-36.133,-116.699,20.508,0,0
1586465454,13.672,-38.574,-335.449,-41.016,0,0
1586465454,8.789,-35.156,-441.406,-45.898,0,0
1586465454,-102.051,-30.273,-354.004,13.184,0,0
1586465454,-128.906,-30.273,-595.703,42.48,0,0
1586465454,-24.902,-28.809,-656.25,-8.789,0,0
1586465454,26.855,-26.367,-223.633,-40.527,0,0
1586465454,-67.383,-30.762,-171.875,7.324,0,0
1586465454,-138.672,-32.715,-169.434,55.176,0,0
1586465454,-55.176,-32.715,-79.59,30.273,0,0
1586465454,26.367,-31.738,-122.559,-25.391,0,0
1586465454,-44.922,-29.785,-326.172,-5.371,0,0
1586465454,-140.625,-31.25,-300.293,47.852,0,0
1586465454,-88.867,-33.691,-61.035,30.273,0,0
1586465454,23.438,-31.738,-152.344,-28.809,0,0
1586465454,-4.883,-27.832,-562.012,-22.461,0,0
1586465454,-117.676,-24.902,-956.055,39.062,0,0
1586465454,-111.328,-24.414,-567.383,37.598,0,0
1586465454,-4.883,-27.832,-142.578,-18.066,0,0
1586465454,0.977,-32.715,-472.656,-41.016,0,0
1586465454,-110.352,-36.621,-444.336,6.836,0,0
1586465454,-138.672,-31.738,-89.355,35.156,0,0
1586465454,-40.039,-32.227,-154.785,-11.719,0,0
1586465454,0,-36.621,-442.383,-46.387,0,0
1586465454,-89.355,-37.598,-416.504,-15.137,0,0
1586465454,-139.648,-35.156,-21.484,21.973,0,0
1586465454,-45.898,-33.203,-27.344,-23.438,0,0
1586465454,49.316,-32.715,-512.695,-84.473,0,0
1586465454,-11.23,-31.25,-564.453,-58.594,0,0
1586465454,-110.84,-31.25,-84.473,-4.883,0,0
1586465454,-61.523,-28.32,58.594,-17.09,0,0
1586465454,46.875,-25.391,-614.258,-63.477,0,0
1586465454,23.438,-25.879,-810.059,-64.941,0,0
1586465454,-86.914,-24.414,-85.449,-10.254,0,0
1586465454,-88.379,-23.926,-12.695,3.906,0,0
1586465454,24.414,-23.926,-297.852,-62.988,0,0
1586465454,48.34,-23.438,-289.062,-98.145,0,0
1586465454,-63.477,-30.273,-44.922,-44.434,0,0
1586465454,-112.305,-32.227,-35.645,-5.859,0,0
1586465454,-7.324,-33.691,-390.137,-55.664,0,0
1586465454,43.457,-31.738,-458.984,-104.98,0,0
1586465454,-69.336,-30.273,-169.434,-58.105,0,0
1586465454,-175.293,-40.527,-275.391,0,0,0
1586465454,-139.16,-43.945,-647.949,-42.48,0,0
1586465454,-28.809,-37.598,-353.027,-100.586,0,0
1586465454,-47.363,-38.086,-98.145,-75.684,0,0
1586465454,-144.531,-42.969,-211.914,-10.254,0,0
1586465454,-96.68,-42.48,-283.203,1.953,0,0
1586465454,19.531,-40.527,-169.922,-41.504,0,0
1586465454,3.906,-47.363,-229.004,-41.016,0,0
1586465454,-108.398,-51.758,-288.086,18.555,0,0
1586465454,-117.676,-50.293,-358.887,22.949,0,0
1586465454,3.418,-46.875,-355.469,-37.598,0,0
1586465454,41.016,-44.922,-229.004,-51.758,0,0
1586465454,-63.477,-46.387,-633.789,28.32,0,0
1586465454,-113.281,-48.34,-543.457,74.219,0,0
1586465454,-14.16,-48.828,-36.133,21.973,0,0
1586465454,69.336,-49.316,-305.176,-29.785,0,0
1586465454,-0.977,-48.828,-445.312,-15.625,0,0
1586465454,-88.867,-45.898,-141.113,19.043,0,0
1586465454,-28.809,-43.457,44.922,-13.184,0,0
1586465454,62.988,-42.969,-276.855,-56.641,0,0
1586465454,21.973,-40.039,-588.379,-29.297,0,0
1586465454,-83.496,-39.062,-473.633,32.715,0,0
1586465454,-62.988,-45.898,-201.66,37.598,0,0
1586465454,52.734,-46.875,-367.188,-8.301,0,0
1586465454,44.434,-40.527,-866.699,-7.324,0,0
1586465454,-68.848,-39.551,-316.406,46.875,0,0
1586465454,-80.566,-38.086,193.359,70.312,0,0
1586465454,28.809,-36.621,-146.973,21.484,0,0
1586465454,66.895,-34.18,-338.867,-6.348,0,0
1586465454,-39.062,-35.156,-156.738,36.621,0,0
1586465454,-102.051,-40.039,-30.762,72.266,0,0
1586465454,-3.418,-34.18,-196.289,33.691,0,0
1586465454,75.195,-34.18,-379.395,-8.789,0,0
1586465454,-4.395,-40.039,-462.891,33.691,0,0
1586465454,-90.82,-37.109,-371.582,104.004,0,0
1586465454,-40.039,-35.156,-645.996,94.727,0,0
1586465454,57.617,-35.156,-787.109,33.691,0,0
1586465454,36.133,-31.25,-292.969,47.852,0,0
1586465454,-78.613,-30.273,-151.367,109.863,0,0
1586465454,-67.383,-32.715,-244.141,109.375,0,0
1586465454,56.152,-31.738,-260.254,41.992,0,0
1586465454,63.965,-32.715,-256.836,24.414,0,0
1586465454,-46.875,-33.691,-324.707,90.332,0,0
1586465454,-86.914,-30.762,-248.047,118.164,0,0
1586465454,10.254,-29.785,-201.172,70.312,0,0
1586465454,62.012,-29.785,-498.535,23.438,0,0
1586465454,-39.551,-28.32,-732.91,42.969,0,0
1586465454,-122.07,-27.344,-778.32,83.496,0,0
1586465454,-40.039,-27.344,-344.238,44.922,0,0
1586465454,52.246,-32.715,-230.957,0,0,0
1586465454,-13.184,-32.715,-542.48,35.156,0,0
1586465454,-118.164,-32.227,-353.027,91.309,0,0
1586465454,-76.66,-36.133,-38.086,79.59,0,0
1586465454,36.133,-37.109,-145.02,27.344,0,0
1586465454,9.766,-36.621,-430.664,27.344,0,0
1586465454,-102.539,-37.109,-312.5,77.148,0,0
1586465454,-87.891,-37.109,-80.078,81.055,0,0
1586465454,26.855,-33.203,-415.039,24.902,0,0
1586465454,32.715,-33.203,-875.977,9.277,0,0
1586465454,-75.684,-36.133,-754.883,71.289,0,0
1586465454,-118.164,-37.598,-116.211,102.051,0,0
1586465454,-11.719,-38.574,-94.727,47.363,0,0
1586465454,58.105,-37.109,-433.105,10.254,0,0
1586465454,-40.527,-34.18,-328.125,45.41,0,0
1586465454,-124.023,-34.18,-78.125,87.891,0,0
1586465454,-42.48,-37.109,-260.254,53.711,0,0
1586465454,60.059,-36.133,-549.805,-15.625,0,0
1586465454,3.906,-33.691,-334.961,-9.766,0,0
1586465454,-104.492,-31.25,-52.734,41.992,0,0
1586465454,-62.5,-29.785,-336.426,35.645,0,0
1586465454,62.988,-30.273,-846.68,-25.391,0,0
1586465454,42.969,-25.879,-579.59,-48.34,0,0
1586465454,-79.59,-27.832,-125.488,0.488,0,0
1586465454,-88.867,-34.18,-157.227,30.762,0,0
1586465454,21.484,-35.156,-350.098,-17.09,0,0
1586465454,50.293,-32.715,-353.027,-38.086,0,0
1586465454,-57.617,-29.297,-212.402,23.438,0,0
1586465454,-107.91,-29.785,-256.348,66.406,0,0
1586465454,-4.395,-32.227,-346.191,28.32,0,0
1586465454,67.871,-30.273,-336.426,-15.625,0,0
1586465454,-18.066,-29.297,-425.293,12.207,0,0
1586465454,-120.117,-34.668,-502.441,55.176,0,0
1586465454,-60.547,-34.668,-459.961,35.156,0,0
1586465454,57.129,-30.762,-281.25,-4.395,0,0
1586465454,17.578,-31.25,-300.293,16.113,0,0
1586465454,-96.68,-29.785,-639.16,83.984,0,0
1586465454,-67.383,-27.344,-428.223,99.609,0,0
1586465454,50.781,-27.344,-161.133,46.875,0,0
1586465454,51.758,-30.273,-512.695,38.086,0,0
1586465454,-64.941,-33.203,-499.023,89.844,0,0
1586465454,-83.496,-32.715,-120.117,100.098,0,0
1586465454,35.156,-32.227,-44.922,33.691,0,0
1586465454,75.684,-34.18,-391.602,-5.371,0,0
1586465454,-30.762,-34.668,-622.559,36.133,0,0
1586465454,-101.562,-38.086,-333.496,65.43,0,0
1586465454,-17.578,-39.551,-192.871,38.086,0,0
1586465454,68.848,-41.016,-643.066,6.836,0,0
1586465454,7.812,-38.574,-856.445,41.992,0,0
1586465454,-88.379,-28.32,-264.16,83.496,0,0
1586465454,-47.363,-28.32,-5.859,40.527,0,0
1586465454,53.711,-30.273,-449.219,-22.949,0,0
1586465454,19.531,-28.32,-519.043,-16.602,0,0
1586465454,-97.656,-28.809,-153.809,32.715,0,0
1586465454,-89.355,-32.227,-58.594,22.949,0,0
1586465454,28.809,-32.715,-385.742,-37.598,0,0
1586465454,36.133,-33.691,-666.016,-47.363,0,0
1586465454,-77.637,-35.645,-530.273,9.277,0,0
1586465454,-102.051,-34.668,-159.18,34.668,0,0
1586465455,12.695,-37.598,-542.48,-0.488,0,0
1586465455,65.43,-35.645,-816.406,-27.832,0,0
1586465455,-31.25,-32.715,-439.453,10.742,0,0
1586465455,-106.934,-32.715,-395.508,58.105,0,0
1586465455,-25.879,-33.203,-371.582,30.273,0,0
1586465455,63.477,-32.715,-343.262,-19.531,0,0
1586465455,-5.859,-30.762,-226.074,3.906,0,0
1586465455,-106.445,-30.762,-197.754,53.711,0,0
1586465455,-56.641,-30.273,-223.633,38.086,0,0
1586465455,59.57,-28.32,-398.926,-32.227,0,0
1586465455,31.738,-26.855,-548.828,-46.875,0,0
1586465455,-82.52,-25.879,-538.086,13.184,0,0
1586465455,-78.613,-28.32,-708.496,18.066,0,0
1586465455,31.738,-32.227,-439.941,-48.828,0,0
1586465455,58.105,-31.25,-275.879,-51.758,0,0
1586465455,-53.711,-30.273,-450.195,19.531,0,0
1586465455,-95.215,-32.227,-302.734,56.641,0,0
1586465455,12.695,-37.598,-193.359,12.207,0,0
1586465455,68.359,-38.086,-530.762,-37.109,0,0
1586465455,-26.855,-37.109,-565.918,-5.371,0,0
1586465455,-107.91,-39.062,-189.453,41.016,0,0
1586465455,-34.18,-41.504,-286.621,6.348,0,0
1586465455,59.57,-43.457,-596.191,-47.852,0,0
1586465455,2.441,-41.992,-847.656,-22.949,0,0
1586465455,-97.656,-36.621,-654.297,33.691,0,0
1586465455,-57.129,-34.668,-59.57,30.762,0,0
1586465455,54.199,-39.062,-261.23,-14.648,0,0
1586465455,39.551,-39.062,-548.34,-16.602,0,0
1586465455,-82.52,-37.109,-296.875,29.297,0,0
1586465455,-97.168,-39.551,-24.902,38.086,0,0
1586465455,18.555,-41.504,-224.609,-15.625,0,0
1586465455,42.48,-43.457,-494.141,-36.621,0,0
1586465455,-65.918,-40.039,-383.789,17.578,0,0
1586465455,-109.863,-33.203,-336.914,43.945,0,0
1586465455,-13.184,-31.25,-575.684,-5.859,0,0
1586465455,50.293,-31.25,-860.352,-42.48,0,0
1586465455,-41.016,-32.227,-440.918,-11.23,0,0
1586465455,-133.301,-32.715,21.973,43.945,0,0
1586465455,-66.895,-32.227,-117.676,29.297,0,0
1586465455,36.621,-32.715,-276.855,-36.133,0,0
1586465455,-16.113,-35.645,-173.34,-37.598,0,0
1586465455,-131.836,-33.203,-85.449,23.926,0,0
1586465455,-104.004,-31.738,-235.352,12.695,0,0
1586465455,10.742,-35.156,-301.758,-55.664,0,0
1586465455,5.859,-33.203,-246.582,-52.734,0,0
1586465455,-107.422,-32.715,-280.762,0,0,0
1586465455,-124.023,-36.133,-624.512,6.348,0,0
1586465455,-6.348,-34.18,-844.727,-61.035,0,0
1586465455,44.434,-31.738,-447.754,-97.656,0,0
1586465455,-50.293,-35.156,-227.539,-44.434,0,0
1586465455,-111.816,-29.297,-240.234,-1.953,0,0
1586465455,-25.879,-20.996,-245.605,-59.57,0,0
1586465455,45.41,-21.973,-262.207,-133.789,0,0
1586465455,-33.691,-22.461,-348.145,-103.516,0,0
1586465455,-133.301,-24.902,-373.047,-52.734,0,0
1586465455,-71.289,-27.832,-125.977,-84.473,0,0
1586465455,31.738,-26.367,-139.16,-144.043,0,0
1586465455,-20.996,-28.809,-587.402,-137.695,0,0
1586465455,-122.559,-26.855,-739.258,-82.52,0,0
1586465455,-91.309,-20.508,-243.164,-94.238,0,0
1586465455,26.855,-23.926,-67.383,-166.016,0,0
1586465455,32.227,-24.414,-483.398,-167.48,0,0
1586465455,-82.52,-27.344,-587.891,-104.98,0,0
1586465455,-106.445,-29.297,-251.465,-98.633,0,0
1586465455,1.953,-30.273,-166.992,-157.715,0,0
1586465455,52.246,-26.855,-474.609,-184.57,0,0
1586465455,-45.898,-22.461,-438.477,-143.555,0,0
1586465455,-117.188,-26.855,-72.754,-114.746,0,0
1586465455,-35.156,-25.391,-83.008,-160.156,0,0
1586465455,49.805,-22.461,-557.617,-209.473,0,0
1586465455,-19.043,-25.879,-692.383,-183.105,0,0
1586465455,-117.676,-30.273,-227.051,-131.348,0,0
1586465455,-63.477,-33.691,-134.766,-145.996,0,0
1586465455,37.109,-32.715,-660.156,-189.453,0,0
1586465455,4.395,-27.832,-643.066,-159.18,0,0
1586465455,-106.445,-26.367,-77.148,-75.684,0,0
1586465455,-101.562,-26.855,-58.105,-65.43,0,0
1586465455,12.207,-29.297,-444.336,-122.559,0,0
1586465455,24.902,-30.762,-587.891,-134.766,0,0
1586465455,-94.727,-33.691,-247.07,-86.426,0,0
1586465455,-127.441,-37.598,-122.559,-49.805,0,0
1586465455,-20.508,-35.645,-452.148,-84.473,0,0
1586465455,32.227,-30.762,-558.105,-112.305,0,0
1586465455,-55.176,-29.297,-204.59,-60.059,0,0
1586465455,-133.789,-34.668,-283.691,-10.254,0,0
1586465455,-59.57,-35.645,-659.18,-41.504,0,0
1586465455,43.945,-26.855,-359.863,-83.008,0,0
1586465455,-10.742,-29.297,-191.895,-52.246,0,0
1586465455,-118.164,-30.273,-397.949,-1.465,0,0
1586465455,-82.52,-27.344,-335.938,-21.484,0,0
1586465455,30.273,-25.391,-151.367,-68.848,0,0
1586465455,8.789,-25.879,-206.543,-53.223,0,0
1586465455,-117.676,-30.273,-493.164,7.812,0,0
1586465455,-119.141,-29.785,-570.312,20.996,0,0
1586465455,2.441,-24.414,-426.27,-39.062,0,0
1586465455,30.273,-28.32,-450.684,-74.707,0,0
1586465455,-81.543,-35.645,-736.816,-33.203,0,0
1586465455,-131.348,-28.32,-627.93,-5.371,0,0
1586465455,-31.25,-28.32,-47.852,-56.152,0,0
1586465455,39.062,-31.25,-207.52,-101.562,0,0
1586465455,-42.48,-25.879,-320.312,-64.453,0,0
1586465455,-127.93,-25.391,5.859,-16.113,0,0
1586465455,-56.641,-28.809,33.691,-46.387,0,0
1586465455,47.363,-32.715,-347.168,-98.633,0,0
1586465455,-2.93,-34.668,-528.809,-79.59,0,0
1586465455,-115.234,-33.203,-427.734,-18.066,0,0
1586465455,-85.938,-31.738,-208.008,-23.926,0,0
1586465455,28.809,-33.691,-393.066,-74.707,0,0
1586465455,20.508,-35.645,-847.656,-65.918,0,0
1586465455,-100.098,-32.227,-361.816,-13.672,0,0
1586465455,-123.047,-33.691,46.387,-5.859,0,0
1586465455,-2.93,-33.691,-249.512,-53.223,0,0
1586465455,41.992,-29.297,-477.051,-75.195,0,0
1586465455,-67.871,-30.273,-261.23,-33.691,0,0
1586465455,-125.977,-32.715,-45.41,-2.441,0,0
1586465455,-30.762,-32.227,-236.816,-39.062,0,0
1586465455,48.34,-32.227,-483.398,-68.848,0,0
1586465455,-31.738,-30.273,-562.5,-37.109,0,0
1586465455,-133.301,-32.227,-392.578,-4.395,0,0
1586465455,-75.684,-35.645,-638.672,-33.691,0,0
1586465455,35.645,-32.227,-830.078,-90.332,0,0
1586465455,-6.836,-31.738,-358.398,-89.844,0,0
1586465455,-125.488,-36.621,-229.492,-34.668,0,0
1586465455,-108.887,-38.574,-386.23,-39.551,0,0
1586465455,12.695,-37.598,-358.398,-114.746,0,0
1586465455,26.367,-37.598,-207.52,-144.043,0,0
1586465455,-83.984,-37.109,-295.41,-96.191,0,0
1586465455,-107.422,-40.527,-346.191,-78.125,0,0
1586465455,-4.395,-42.48,-221.68,-133.789,0,0
1586465455,41.016,-43.457,-446.777,-161.133,0,0
1586465455,-54.688,-43.945,-740.234,-117.188,0,0
1586465455,-146.484,-38.086,-777.832,-74.707,0,0
1586465455,-63.477,-32.227,-426.27,-93.262,0,0
1586465455,41.504,-30.762,-257.812,-119.629,0,0
1586465455,-28.809,-34.18,-427.734,-76.66,0,0
1586465455,-119.141,-36.133,-295.898,-19.531,0,0
1586465455,-75.684,-38.086,-40.039,-33.691,0,0
1586465455,8.789,-39.062,-225.586,-93.75,0,0
1586465455,-30.762,-35.645,-583.008,-92.285,0,0
1586465455,-150.879,-33.691,-366.699,-42.969,0,0
1586465455,-150.391,-35.156,-30.273,-46.875,0,0
1586465455,-27.344,-34.18,-290.527,-100.098,0,0
1586465455,-1.465,-35.156,-816.895,-103.516,0,0
1586465455,-121.094,-35.156,-732.91,-38.086,0,0
1586465455,-155.273,-34.668,-47.363,-5.859,0,0
1586465455,-31.25,-37.598,-122.07,-49.805,0,0
1586465455,36.133,-34.668,-480.469,-83.496,0,0
1586465455,-52.246,-32.227,-319.824,-37.109,0,0
1586465455,-127.441,-26.367,-20.508,15.625,0,0
1586465455,-50.293,-25.391,-96.68,-10.742,0,0
1586465455,42.969,-29.297,-400.391,-66.406,0,0
1586465455,-19.531,-30.273,-287.109,-59.082,0,0
1586465455,-122.07,-28.32,-95.215,-4.395,0,0
1586465455,-82.52,-30.762,-288.086,-27.344,0,0
1586465455,27.832,-33.203,-807.129,-107.91,0,0
1586465455,8.301,-31.738,-674.316,-110.84,0,0
1586465455,-110.84,-29.785,-70.312,-45.41,0,0
1586465455,-105.469,-25.879,-224.121,-15.137,0,0
1586465455,9.277,-27.832,-452.148,-56.641,0,0
1586465455,35.645,-29.785,-214.844,-70.801,0,0
1586465455,-70.801,-32.227,-155.762,-6.836,0,0
1586465455,-115.234,-33.203,-221.68,42.48,0,0
1586465455,-16.113,-34.18,-250.977,20.02,0,0
1586465455,43.457,-34.668,-241.211,-8.301,0,0
1586465455,-38.086,-32.227,-198.73,27.344,0,0
1586465455,-121.094,-31.25,-362.305,77.148,0,0
1586465455,-51.758,-27.344,-419.922,51.758,0,0
1586465455,45.41,-22.461,-249.023,1.953,0,0
1586465455,-9.277,-23.438,-322.266,20.02,0,0
1586465455,-118.652,-27.344,-583.496,61.035,0,0
1586465455,-80.078,-27.832,-396.484,43.457,0,0
1586465455,40.039,-26.367,-47.852,-3.906,0,0
1586465455,25.879,-22.949,-260.742,4.883,0,0
1586465455,-91.797,-21.484,-308.105,66.895,0,0
1586465455,-107.91,-22.949,28.809,75.195,0,0
1586465455,5.371,-21.973,39.062,19.043,0,0
1586465455,28.809,-27.344,-253.906,-16.602,0,0
1586465455,-90.332,-32.227,-506.348,17.578,0,0
1586465455,-160.645,-30.762,-252.441,59.082,0,0
1586465455,-75.684,-33.203,173.828,17.578,0,0
1586465455,2.93,-32.227,-242.676,-21.973,0,0
1586465455,-71.289,-31.25,-764.648,20.508,0,0
1586465455,-162.109,-30.273,-220.703,56.641,0,0
1586465455,-99.121,-31.738,-17.09,21.484,0,0
1586465455,3.418,-37.598,-429.199,-37.109,0,0
1586465455,-45.41,-38.574,-397.949,-19.531,0,0
1586465455,-156.25,-40.039,-17.578,41.992,0,0
1586465455,-104.492,-39.062,20.02,52.246,0,0
1586465455,9.277,-35.156,-382.812,-20.996,0,0
1586465455,-45.41,-33.203,-666.992,-89.844,0,0
1586465455,-192.383,-37.598,-420.898,-62.012,0,0
1586465455,-222.168,-40.039,-41.992,-41.016,0,0
1586465455,-125,-42.48,-559.57,-97.656,0,0
1586465455,-94.727,-46.875,-828.125,-144.531,0,0
1586465455,-206.543,-44.434,-209.473,-114.258,0,0
1586465455,-295.898,-46.875,-111.816,-94.727,0,0
1586465455,-218.75,-48.828,-347.168,-147.461,0,0
1586465455,-141.113,-43.457,-337.891,-204.59,0,0
1586465455,-221.191,-50.781,-425.781,-185.547,0,0
1586465455,-312.5,-55.176,-532.227,-140.625,0,0
1586465455,-251.953,-55.176,-382.324,-163.086,0,0
1586465455,-131.348,-55.176,-556.152,-205.566,0,0
1586465455,-145.996,-51.758,-525.391,-193.359,0,0
1586465455,-246.582,-55.176,-406.738,-142.578,0,0
1586465455,-223.633,-54.199,-737.305,-129.883,0,0
1586465455,-95.215,-49.805,-475.098,-170.41,0,0
1586465455,-76.66,-53.711,-224.609,-176.758,0,0
1586465455,-184.57,-52.734,-355.469,-111.328,0,0
1586465455,-209.961,-44.434,-272.461,-73.242,0,0
1586465455,-94.727,-44.434,-120.117,-119.141,0,0
1586465455,-30.762,-47.852,-307.129,-161.133,0,0
1586465455,-132.812,-47.852,-446.777,-103.516,0,0
1586465455,-192.383,-48.828,-354.004,-33.203,0,0
1586465455,-88.867,-47.852,-499.023,-51.27,0,0
1586465455,-1.953,-45.41,-647.461,-72.754,0,0
1586465455,-56.152,-45.41,-873.535,-22.949,0,0
1586465455,-157.227,-46.387,-688.965,45.41,0,0
1586465455,-99.609,-43.457,-93.75,41.016,0,0
1586465455,23.926,-39.062,-264.16,-12.695,0,0
1586465455,-0.488,-41.504,-501.465,-20.996,0,0
1586465455,-120.605,-43.457,-217.773,33.203,0,0
1586465455,-125.488,-45.898,79.59,33.691,0,0
1586465455,-6.348,-48.34,-160.156,-33.691,0,0
1586465455,23.438,-48.34,-466.797,-65.43,0,0
1586465455,-83.984,-47.363,-244.141,-16.113,0,0
1586465455,-121.094,-45.41,-219.727,20.508,0,0
1586465455,-12.207,-41.016,-543.457,-24.414,0,0
1586465455,42.969,-35.645,-769.531,-62.5,0,0
1586465455,-52.734,-31.738,-517.09,-17.578,0,0
1586465455,-130.371,-33.203,-154.297,35.156,0,0
1586465455,-56.641,-34.18,-354.004,10.742,0,0
1586465455,36.133,-36.621,-637.207,-41.992,0,0
1586465455,-15.625,-38.574,-306.641,-26.855,0,0
1586465455,-116.211,-35.645,-80.566,37.598,0,0
1586465455,-81.543,-34.668,-216.797,22.949,0,0
1586465455,25.879,-35.156,-336.914,-49.805,0,0
1586465455,11.23,-35.645,-260.254,-56.641,0,0
1586465455,-96.68,-34.668,-277.832,7.812,0,0
1586465455,-103.027,-34.668,-645.996,32.227,0,0
1586465455,2.441,-34.668,-756.836,-21.484,0,0
1586465455,35.645,-33.691,-290.039,-44.434,0,0
1586465455,-63.965,-39.062,-217.773,13.184,0,0
1586465455,-111.328,-35.645,-197.754,48.34,0,0
1586465455,-9.277,-30.762,-227.051,5.859,0,0
1586465455,60.547,-31.738,-347.656,-31.25,0,0
1586465455,-21.484,-35.156,-361.816,-4.395,0,0
1586465455,-109.375,-37.109,-301.758,47.363,0,0
1586465455,-57.617,-42.969,-81.055,24.902,0,0
1586465455,35.156,-44.922,-137.207,-31.25,0,0
1586465455,-3.418,-44.922,-512.695,-9.277,0,0
1586465455,-111.816,-43.457,-772.949,52.246,0,0
1586465455,-90.82,-41.016,-315.918,47.852,0,0
1586465455,20.508,-41.016,-39.551,5.859,0,0
1586465455,21.973,-39.062,-433.105,19.531,0,0
1586465455,-89.355,-41.016,-403.809,80.078,0,0
1586465455,-117.188,-39.551,100.098,90.332,0,0
1586465456,-12.207,-37.598,63.965,30.273,0,0
1586465456,24.414,-40.039,-329.59,-5.371,0,0
1586465456,-77.148,-37.598,-355.469,39.551,0,0
1586465456,-139.16,-33.203,-118.652,80.566,0,0
1586465456,-49.805,-34.668,-27.344,42.48,0,0
1586465456,30.273,-37.598,-437.5,-7.324,0,0
1586465456,-54.199,-36.133,-618.652,14.648,0,0
1586465456,-146.484,-34.668,-132.324,77.637,0,0
1586465456,-83.008,-34.668,51.758,58.105,0,0
1586465456,21.973,-36.621,-539.551,-10.742,0,0
1586465456,-14.648,-36.621,-614.258,0.488,0,0
1586465456,-120.117,-36.133,5.371,71.289,0,0
1586465456,-101.562,-34.18,-3.906,79.102,0,0
1586465456,10.742,-35.645,-272.949,14.16,0,0
1586465456,20.508,-34.668,-256.836,6.348,0,0
1586465456,-100.098,-32.715,-17.09,70.312,0,0
1586465456,-115.234,-33.691,-53.223,78.125,0,0
1586465456,-0.488,-31.738,-467.285,18.555,0,0
1586465456,29.785,-26.855,-645.996,0,0,0
1586465456,-64.453,-26.855,-403.32,37.109,0,0
1586465456,-140.625,-31.25,-282.715,73.242,0,0
1586465456,-66.406,-29.297,-593.75,41.016,0,0
1586465456,19.043,-25.391,-373.047,-13.672,0,0
1586465456,-49.805,-34.18,-96.68,3.418,0,0
1586465456,-148.438,-37.109,-130.859,64.453,0,0
1586465456,-95.703,-33.203,-76.172,63.965,0,0
1586465456,16.113,-35.156,-68.848,21.973,0,0
1586465456,-15.137,-33.203,-226.074,31.25,0,0
1586465456,-151.367,-30.273,-278.809,69.824,0,0
1586465456,-166.504,-32.227,-335.938,62.012,0,0
1586465456,-54.199,-30.762,-356.445,0,0,0
1586465456,-27.344,-27.832,-167.969,-33.203,0,0
1586465456,-142.09,-32.227,-571.289,16.113,0,0
1586465456,-184.082,-26.367,-632.324,47.363,0,0
1586465456,-67.383,-18.066,15.137,-9.766,0,0
1586465456,-8.301,-27.344,-140.625,-61.035,0,0
1586465456,-99.609,-30.762,-301.27,-20.02,0,0
1586465456,-168.457,-24.902,-3.906,30.762,0,0
1586465456,-91.309,-26.367,96.68,-2.93,0,0
1586465456,8.789,-27.832,-251.465,-51.758,0,0
1586465456,-47.363,-29.785,-436.035,-18.066,0,0
1586465456,-169.922,-30.762,-298.828,39.062,0,0
1586465456,-138.184,-33.203,-161.621,10.742,0,0
1586465456,-23.438,-40.039,-315.918,-45.898,0,0
1586465456,-22.949,-39.062,-751.465,-25.391,0,0
1586465456,-123.535,-40.039,-273.438,43.945,0,0
1586465456,-125.977,-41.016,269.531,60.059,0,0
1586465456,-12.695,-38.086,-91.309,1.953,0,0
1586465456,12.207,-34.18,-530.762,-19.531,0,0
1586465456,-91.309,-33.691,-180.664,41.992,0,0
1586465456,-135.254,-38.574,142.578,82.031,0,0
1586465456,-27.832,-38.574,-115.234,35.645,0,0
1586465456,44.922,-34.668,-286.621,-5.859,0,0
1586465456,-48.34,-33.691,-303.223,27.832,0,0
1586465456,-137.695,-36.621,-155.762,72.754,0,0
1586465456,-64.453,-36.621,-440.918,56.152,0,0
1586465456,31.738,-34.668,-676.27,11.719,0,0
1586465456,-20.02,-33.203,-179.199,21.484,0,0
1586465456,-122.07,-33.691,5.859,80.078,0,0
1586465456,-83.984,-31.25,-33.691,79.102,0,0
1586465456,32.715,-34.668,-74.219,9.766,0,0
1586465456,26.367,-38.086,-38.574,3.906,0,0
1586465456,-94.727,-36.621,-104.492,66.895,0,0
1586465456,-112.305,-38.574,-277.832,76.172,0,0
1586465456,5.371,-39.551,-227.051,22.461,0,0
1586465456,44.922,-36.133,-356.445,-1.465,0,0
1586465456,-58.594,-34.668,-515.625,34.18,0,0
1586465456,-116.211,-32.715,-664.062,69.336,0,0
1586465456,-31.25,-32.715,-350.586,30.273,0,0
1586465456,45.41,-37.598,-101.562,-14.16,0,0
1586465456,-26.855,-35.156,-346.191,29.297,0,0
1586465456,-119.629,-31.738,-210.449,74.707,0,0
1586465456,-57.129,-32.227,-13.184,46.875,0,0
1586465456,50.781,-32.227,-163.086,-13.672,0,0
1586465456,5.859,-33.203,-393.555,-20.508,0,0
1586465456,-104.492,-35.156,-248.535,30.762,0,0
1586465456,-83.496,-32.227,6.348,25.879,0,0
1586465456,27.832,-30.762,-334.473,-37.109,0,0
1586465456,30.762,-35.156,-856.445,-40.527,0,0
1586465456,-87.891,-35.156,-703.613,14.648,0,0
1586465456,-114.258,-34.668,-15.625,32.227,0,0
1586465456,-9.766,-38.574,-25.391,-18.066,0,0
1586465456,46.387,-34.668,-445.312,-34.668,0,0
1586465456,-43.457,-29.785,-356.445,19.531,0,0
1586465456,-115.234,-36.133,35.156,43.945,0,0
1586465456,-29.785,-41.016,-92.773,-14.648,0,0
1586465456,54.199,-41.504,-455.566,-71.777,0,0
1586465456,-17.578,-38.574,-364.746,-33.203,0,0
1586465456,-111.816,-34.18,-105.957,38.086,0,0
1586465456,-58.105,-35.645,-299.805,43.457,0,0
1586465456,43.945,-36.133,-801.758,-6.348,0,0
1586465456,9.766,-34.668,-566.406,-6.348,0,0
1586465456,-102.051,-36.621,-159.18,52.246,0,0
1586465456,-93.262,-36.621,-303.223,52.246,0,0
1586465456,27.832,-37.109,-469.238,-1.953,0,0
1586465456,53.223,-32.715,-402.832,-14.16,0,0
1586465456,-74.219,-28.809,-264.648,17.578,0,0
1586465456,-122.07,-32.715,-310.547,31.738,0,0
1586465456,-1.953,-35.645,-380.859,-6.836,0,0
1586465456,67.871,-32.715,-303.711,-26.855,0,0
1586465456,-28.809,-31.738,-292.969,26.367,0,0
1586465456,-103.516,-28.32,-440.918,80.078,0,0
1586465456,-3.418,-22.949,-622.559,54.199,0,0
1586465456,93.262,-22.461,-520.508,0,0,0
1586465456,28.809,-22.949,-348.633,24.902,0,0
1586465456,-75.684,-26.367,-569.824,85.449,0,0
1586465456,-44.434,-25.391,-488.77,69.336,0,0
1586465456,62.012,-20.508,-201.172,2.441,0,0
1586465456,44.922,-18.066,-454.102,-11.23,0,0
1586465456,-74.707,-20.02,-477.051,32.715,0,0
1586465456,-80.078,-22.461,-185.059,31.738,0,0
1586465456,30.273,-23.926,-148.926,-34.668,0,0
1586465456,54.688,-24.902,-462.891,-55.176,0,0
1586465456,-53.711,-25.391,-708.984,-7.324,0,0
1586465456,-103.027,-22.949,-410.156,20.508,0,0
1586465456,2.441,-19.531,-130.371,-15.625,0,0
1586465456,63.477,-22.949,-512.207,-53.711,0,0
1586465456,-33.203,-23.438,-918.457,-6.348,0,0
1586465456,-107.91,-20.996,-425.293,50.293,0,0
1586465456,-31.25,-23.438,-79.59,19.531,0,0
1586465456,64.941,-23.438,-471.68,-26.855,0,0
1586465456,14.16,-19.043,-586.914,-5.859,0,0
1586465456,-95.703,-18.555,-274.902,33.691,0,0
1586465456,-63.477,-21.484,-319.336,25.391,0,0
1586465456,50.293,-23.926,-732.91,-30.273,0,0
1586465456,26.855,-20.996,-929.199,-40.039,0,0
1586465456,-91.797,-15.137,-565.43,1.953,0,0
1586465456,-99.121,-18.066,-205.566,-2.441,0,0
1586465456,9.277,-21.973,-657.227,-57.617,0,0
1586465456,43.457,-19.531,-872.559,-68.359,0,0
1586465456,-61.523,-19.043,-312.5,-4.883,0,0
1586465456,-119.629,-26.367,-182.129,26.855,0,0
1586465456,-28.32,-27.832,-428.223,-20.508,0,0
1586465456,45.898,-25.391,-541.504,-77.148,0,0
1586465456,-30.273,-22.461,-392.09,-34.18,0,0
1586465456,-116.699,-25.391,-304.199,42.48,0,0
1586465456,-55.176,-29.297,-391.113,16.113,0,0
1586465456,45.898,-26.855,-592.773,-62.012,0,0
1586465456,4.395,-26.367,-727.539,-66.406,0,0
1586465456,-106.934,-25.879,-685.547,-7.812,0,0
1586465456,-83.984,-23.438,-813.965,3.418,0,0
1586465456,30.273,-21.973,-524.902,-63.477,0,0
1586465456,27.344,-23.438,-285.156,-85.449,0,0
1586465456,-82.52,-21.973,-428.711,-19.043,0,0
1586465456,-107.91,-25.879,-317.871,4.883,0,0
1586465456,-12.207,-29.785,-178.711,-47.363,0,0
1586465456,33.203,-28.809,-315.43,-65.918,0,0
1586465456,-66.406,-25.879,-488.77,-11.23,0,0
1586465456,-141.602,-25.879,-337.402,30.762,0,0
1586465456,-47.852,-29.297,-311.523,-2.441,0,0
1586465456,46.387,-30.273,-557.129,-56.641,0,0
1586465456,-27.344,-27.344,-845.215,-31.738,0,0
1586465456,-123.535,-25.391,-647.461,35.645,0,0
1586465456,-72.754,-24.902,-185.547,20.996,0,0
1586465456,24.414,-26.855,-456.543,-36.133,0,0
1586465456,-18.555,-27.832,-590.82,-30.762,0,0
1586465456,-136.23,-24.414,-288.086,34.668,0,0
1586465456,-124.023,-30.273,25.879,52.734,0,0
1586465456,-8.301,-37.598,-191.895,-1.953,0,0
1586465456,4.883,-38.574,-407.715,-14.648,0,0
1586465456,-114.746,-36.133,-144.043,34.668,0,0
1586465456,-148.438,-33.203,-67.383,60.059,0,0
1586465456,-33.691,-33.691,-379.883,8.301,0,0
1586465456,14.648,-30.273,-761.719,-30.273,0,0
1586465456,-84.473,-28.809,-397.949,7.812,0,0
1586465456,-151.855,-35.156,78.125,42.48,0,0
1586465456,-69.824,-39.062,-133.301,15.625,0,0
1586465456,13.672,-37.109,-304.688,-26.367,0,0
1586465456,-46.387,-36.133,-200.195,0.977,0,0
1586465456,-143.066,-36.621,-185.059,61.523,0,0
1586465456,-116.211,-34.668,-205.078,34.668,0,0
1586465456,-8.789,-31.25,-142.578,-48.34,0,0
1586465456,-30.762,-35.156,-104.492,-44.434,0,0
1586465456,-147.949,-37.598,-152.344,9.766,0,0
1586465456,-142.578,-37.598,-528.809,16.602,0,0
1586465456,-25.879,-31.25,-664.551,-33.691,0,0
1586465456,0,-28.32,-192.383,-53.223,0,0
1586465456,-114.258,-31.738,-133.789,0,0,0
1586465456,-160.156,-34.18,-187.012,21.973,0,0
1586465456,-51.758,-32.715,-117.676,-31.738,0,0
1586465456,11.23,-32.227,-132.812,-72.754,0,0
1586465456,-86.426,-31.25,-270.508,-27.832,0,0
1586465456,-163.574,-27.832,-290.527,19.531,0,0
1586465456,-90.332,-31.738,-248.535,-14.16,0,0
1586465456,-7.812,-28.809,-396.484,-65.43,0,0
1586465456,-62.5,-24.902,-553.711,-29.297,0,0
1586465456,-168.945,-26.855,-858.887,31.25,0,0
1586465456,-129.395,-28.32,-531.25,-6.348,0,0
1586465456,-6.836,-30.273,-141.602,-71.289,0,0
1586465456,-15.625,-28.809,-427.734,-76.66,0,0
1586465456,-135.742,-28.32,-396.484,-19.531,0,0
1586465456,-151.367,-35.645,-28.32,11.719,0,0
1586465456,-29.785,-35.156,-44.434,-30.273,0,0
1586465456,10.742,-29.785,-430.664,-43.457,0,0
1586465456,-97.656,-30.762,-340.332,18.555,0,0
1586465456,-149.902,-27.344,70.312,52.246,0,0
1586465456,-50.781,-28.809,17.09,7.324,0,0
1586465456,20.02,-30.762,-475.586,-39.062,0,0
1586465456,-57.129,-28.809,-652.344,-7.324,0,0
1586465456,-136.719,-30.273,-253.906,37.109,0,0
1586465456,-76.172,-35.645,-12.695,17.578,0,0
1586465456,20.02,-32.715,-527.832,-25.391,0,0
1586465456,-22.949,-25.879,-652.832,-13.184,0,0
1586465456,-124.023,-25.391,-83.008,48.34,0,0
1586465456,-96.191,-27.832,-75.195,44.434,0,0
1586465456,15.137,-32.227,-343.262,-10.254,0,0
1586465456,8.301,-28.32,-378.418,-19.531,0,0
1586465456,-102.051,-24.902,-160.645,24.414,0,0
1586465456,-122.559,-28.32,-168.457,45.41,0,0
1586465456,-20.996,-30.762,-534.18,3.418,0,0
1586465456,18.066,-31.738,-683.105,-31.738,0,0
1586465456,-79.59,-33.203,-359.863,11.23,0,0
1586465456,-145.02,-31.25,-265.625,68.848,0,0
1586465456,-47.363,-30.273,-585.449,27.344,0,0
1586465456,40.039,-33.203,-532.227,-24.902,0,0
1586465456,-45.898,-36.621,-233.887,11.719,0,0
1586465456,-142.578,-37.109,-303.223,66.895,0,0
1586465456,-88.379,-33.691,-368.652,52.246,0,0
1586465456,8.301,-35.156,-178.711,-7.812,0,0
1586465456,-16.602,-38.574,-105.469,7.812,0,0
1586465456,-115.723,-34.668,-409.18,94.727,0,0
1586465456,-112.305,-30.762,-683.105,79.102,0,0
1586465456,-14.16,-34.18,-344.727,-15.625,0,0
1586465456,-6.348,-34.18,-167.48,-28.32,0,0
1586465456,-113.77,-33.203,-569.824,35.645,0,0
1586465456,-141.113,-31.738,-653.809,52.734,0,0
1586465456,-32.227,-28.32,-19.531,-8.301,0,0
1586465456,19.531,-27.344,-49.805,-47.363,0,0
1586465456,-77.148,-28.32,-517.09,-6.836,0,0
1586465456,-145.996,-27.344,-423.34,41.016,0,0
1586465456,-67.871,-26.855,51.27,10.254,0,0
1586465456,18.066,-30.762,-155.273,-39.551,0,0
1586465456,-41.016,-30.762,-352.051,-21.484,0,0
1586465456,-142.578,-31.25,-223.145,25.879,0,0
1586465456,-89.844,-30.762,-45.898,13.184,0,0
1586465456,27.344,-32.715,-203.125,-43.457,0,0
1586465456,-0.488,-32.715,-719.238,-38.086,0,0
1586465456,-110.352,-27.344,-257.324,17.578,0,0
1586465456,-106.445,-33.203,211.914,15.137,0,0
1586465456,4.883,-34.668,-159.668,-32.227,0,0
1586465456,17.578,-32.227,-327.148,-44.434,0,0
1586465456,-93.75,-32.227,-47.363,10.742,0,0
1586465456,-127.93,-31.25,148.438,41.016,0,0
1586465456,-22.461,-32.227,-95.215,-13.184,0,0
1586465456,40.039,-32.227,-437.012,-51.27,0,0
1586465456,-48.34,-36.133,-457.52,-10.742,0,0
1586465456,-126.465,-37.598,-271.973,39.551,0,0
1586465456,-58.105,-40.039,-573.242,19.531,0,0
1586465456,26.855,-43.945,-885.742,-29.297,0,0
1586465456,-24.414,-42.48,-316.895,-14.16,0,0
1586465456,-123.047,-41.992,-33.203,45.41,0,0
1586465456,-89.355,-43.457,-141.113,42.48,0,0
1586465456,26.855,-44.434,-166.992,-11.23,0,0
1586465456,10.742,-38.574,-182.617,-6.836,0,0
1586465456,-108.887,-39.062,-237.305,52.246,0,0
1586465456,-108.887,-41.016,-216.309,62.988,0,0
1586465457,8.789,-37.598,-111.816,15.137,0,0
1586465457,34.668,-38.086,-307.617,-2.441,0,0
1586465457,-76.66,-41.016,-535.156,55.176,0,0
1586465457,-134.277,-39.062,-636.719,100.098,0,0
1586465457,-33.203,-36.133,-347.656,48.828,0,0
1586465457,37.598,-34.18,-158.691,-3.906,0,0
1586465457,-53.223,-28.809,-300.293,22.949,0,0
1586465457,-138.672,-31.738,-249.023,71.777,0,0
1586465457,-71.777,-32.715,-93.75,59.082,0,0
1586465457,30.762,-30.762,-91.797,2.93,0,0
1586465457,-21.973,-34.668,-309.082,-7.324,0,0
1586465457,-136.23,-37.598,-189.453,33.691,0,0
1586465457,-105.469,-37.598,11.23,29.785,0,0
1586465457,2.441,-36.133,-281.738,-27.832,0,0
1586465457,-5.859,-33.203,-809.082,-33.203,0,0
1586465457,-120.605,-33.691,-740.723,20.02,0,0
1586465457,-144.043,-32.715,-85.938,29.785,0,0
1586465457,-39.551,-31.25,-142.578,-37.598,0,0
1586465457,0.977,-34.668,-632.324,-67.383,0,0
1586465457,-93.262,-34.18,-537.109,-15.625,0,0
1586465457,-142.09,-32.227,-104.492,8.301,0,0
1586465457,-46.387,-31.25,-193.359,-38.086,0,0
1586465457,31.738,-31.738,-568.359,-82.031,0,0
1586465457,-41.016,-31.25,-438.965,-59.57,0,0
1586465457,-132.812,-26.367,-83.008,-15.137,0,0
1586465457,-85.449,-28.32,-294.434,-36.133,0,0
1586465457,19.043,-31.25,-826.172,-74.707,0,0
1586465457,0.488,-33.203,-663.574,-39.551,0,0
1586465457,-126.953,-36.133,-150.391,1.953,0,0
1586465457,-147.461,-39.062,-294.434,-29.785,0,0
1586465457,-41.016,-39.062,-613.77,-94.238,0,0
1586465457,-42.969,-42.969,-419.434,-116.211,0,0
1586465457,-166.504,-42.969,-281.25,-69.336,0,0
1586465457,-203.613,-42.969,-369.141,-52.734,0,0
1586465457,-112.793,-46.387,-393.066,-133.789,0,0
1586465457,-62.988,-44.922,-299.316,-164.062,0,0
1586465457,-173.828,-49.805,-240.723,-118.652,0,0
1586465457,-257.812,-54.688,-574.219,-84.961,0,0
1586465457,-166.504,-55.664,-693.848,-107.91,0,0
1586465457,-72.754,-51.758,-352.539,-148.438,0,0
1586465457,-130.371,-50.293,-338.379,-99.609,0,0
1586465457,-224.609,-51.27,-453.613,-31.25,0,0
1586465457,-169.434,-50.293,-331.055,-36.133,0,0
1586465457,-53.711,-47.363,-170.41,-77.637,0,0
1586465457,-83.496,-45.41,-294.434,-77.637,0,0
1586465457,-192.383,-46.387,-271.973,-23.438,0,0
1586465457,-177.246,-40.527,-25.391,-19.043,0,0
1586465457,-55.664,-43.457,-53.223,-71.777,0,0
1586465457,-33.203,-45.41,-408.203,-74.219,0,0
1586465457,-139.648,-38.086,-573.242,-5.859,0,0
1586465457,-180.176,-38.086,-371.582,31.25,0,0
1586465457,-73.242,-37.598,-117.676,-4.395,0,0
1586465457,-6.836,-36.621,-417.969,-34.18,0,0
1586465457,-96.191,-37.109,-581.055,-5.859,0,0
1586465457,-167.48,-37.598,-23.926,25.879,0,0
1586465457,-83.984,-42.48,128.906,-20.508,0,0
1586465457,22.949,-43.945,-402.832,-74.219,0,0
1586465457,-21.484,-37.109,-612.305,-54.199,0,0
1586465457,-126.465,-30.762,-141.602,-6.836,0,0
1586465457,-86.426,-34.18,76.172,-5.371,0,0
1586465457,30.762,-38.574,-459.961,-63.965,0,0
1586465457,18.066,-25.391,-943.359,-63.965,0,0
1586465457,-90.332,-23.926,-502.441,-5.859,0,0
1586465457,-91.309,-35.156,-143.555,1.465,0,0
1586465457,18.555,-35.156,-618.164,-47.852,0,0
1586465457,32.715,-30.762,-782.715,-64.453,0,0
1586465457,-74.707,-30.273,-125,-7.324,0,0
1586465457,-121.094,-37.109,-19.043,31.25,0,0
1586465457,-23.438,-35.645,-279.785,-2.441,0,0
1586465457,44.434,-32.715,-327.637,-42.48,0,0
1586465457,-49.316,-27.344,-168.457,-16.602,0,0
1586465457,-143.555,-23.926,-111.816,27.344,0,0
1586465457,-69.824,-24.902,-382.812,0.488,0,0
1586465457,32.715,-21.484,-634.277,-49.805,0,0
1586465457,-17.09,-18.066,-548.828,-26.855,0,0
1586465457,-119.629,-16.602,-415.039,38.086,0,0
1586465457,-94.238,-16.113,-738.281,38.574,0,0
1586465457,6.836,-14.648,-555.176,-27.344,0,0
1586465457,-13.184,-17.09,-365.234,-34.18,0,0
1586465457,-136.719,-22.461,-647.461,22.949,0,0
1586465457,-152.344,-20.508,-497.07,38.574,0,0
1586465457,-37.109,-16.602,-187.012,-13.184,0,0
1586465457,-3.418,-20.02,-325.195,-40.039,0,0
1586465457,-111.328,-19.531,-473.145,14.648,0,0
1586465457,-166.016,-16.113,-236.816,72.266,0,0
1586465457,-73.242,-17.578,-315.918,48.34,0,0
1586465457,5.859,-20.508,-599.121,-4.883,0,0
1586465457,-62.988,-19.531,-842.773,19.531,0,0
1586465457,-145.996,-21.973,-731.934,69.336,0,0
1586465457,-78.125,-25.391,-91.797,35.645,0,0
1586465457,30.762,-22.949,-181.152,-30.762,0,0
1586465457,-5.371,-26.855,-522.949,-31.25,0,0
1586465457,-116.699,-27.832,-290.527,21.973,0,0
1586465457,-99.121,-29.785,-161.621,20.508,0,0
1586465457,17.578,-34.668,-517.578,-44.922,0,0
1586465457,15.625,-30.762,-617.676,-57.617,0,0
1586465457,-104.004,-33.203,-327.148,-3.418,0,0
1586465457,-125.488,-36.133,-312.012,18.555,0,0
1586465457,-16.602,-35.156,-610.84,-40.039,0,0
1586465457,34.18,-32.227,-866.699,-81.055,0,0
1586465457,-60.547,-25.879,-496.094,-28.32,0,0
1586465457,-135.742,-26.855,-1.953,20.996,0,0
1586465457,-43.945,-29.785,-241.211,-6.348,0,0
1586465457,53.223,-30.273,-570.801,-36.621,0,0
1586465457,-17.578,-28.809,-312.988,-8.301,0,0
1586465457,-125,-30.762,-36.621,43.945,0,0
1586465457,-74.707,-31.25,-244.141,23.438,0,0
1586465457,25.391,-28.32,-446.289,-30.273,0,0
1586465457,-11.23,-25.879,-393.066,-12.695,0,0
1586465457,-109.375,-27.832,-373.047,39.551,0,0
1586465457,-103.027,-30.762,-659.18,46.387,0,0
1586465457,11.719,-30.762,-688.477,2.93,0,0
1586465457,27.832,-29.297,-237.793,-13.672,0,0
1586465457,-90.82,-31.25,-175.781,37.598,0,0
1586465457,-118.652,-29.785,-205.078,59.082,0,0
1586465457,-8.301,-24.414,-242.676,0,0,0
1586465457,45.41,-24.414,-354.98,-34.668,0,0
1586465457,-49.316,-26.367,-377.93,-3.418,0,0
1586465457,-130.859,-29.297,-292.969,19.531,0,0
1586465457,-47.852,-27.832,-138.184,-9.766,0,0
1586465457,46.875,-21.973,-155.762,-38.574,0,0
1586465457,-20.02,-23.926,-450.195,12.695,0,0
1586465457,-112.793,-29.297,-801.758,68.848,0,0
1586465457,-57.129,-28.32,-603.516,30.273,0,0
1586465457,62.5,-24.902,-314.941,-20.508,0,0
1586465457,25.391,-26.367,-499.512,-37.109,0,0
1586465457,-129.395,-29.785,-571.289,-20.996,0,0
1586465457,-135.742,-31.738,-116.699,-11.719,0,0
1586465457,-20.02,-35.645,-82.031,-64.941,0,0
1586465457,-10.742,-31.738,-507.324,-102.051,0,0
1586465457,-134.277,-28.809,-484.863,-52.734,0,0
1586465457,-187.5,-34.668,-57.617,-14.16,0,0
1586465457,-94.238,-38.574,-93.262,-58.105,0,0
1586465457,-35.156,-40.039,-589.844,-105.957,0,0
1586465457,-123.535,-40.527,-737.793,-75.684,0,0
1586465457,-208.496,-41.992,-272.461,-30.762,0,0
1586465457,-124.512,-39.062,-37.109,-64.453,0,0
1586465457,-17.578,-40.527,-594.238,-108.887,0,0
1586465457,-72.266,-45.41,-758.301,-65.43,0,0
1586465457,-172.852,-41.992,-256.836,-10.254,0,0
1586465457,-136.719,-40.039,-129.395,-21.973,0,0
1586465457,-20.508,-40.039,-348.633,-67.383,0,0
1586465457,-25.391,-36.621,-418.457,-55.664,0,0
1586465457,-135.742,-36.133,-147.461,9.277,0,0
1586465457,-149.414,-42.48,-71.777,15.137,0,0
1586465457,-23.926,-42.48,-483.398,-49.805,0,0
1586465457,17.578,-38.086,-573.242,-78.125,0,0
1586465457,-94.238,-39.062,-177.734,-20.996,0,0
1586465457,-150.391,-42.969,-160.645,24.414,0,0
1586465457,-56.641,-41.992,-712.402,3.418,0,0
1586465457,22.461,-35.156,-550.293,-37.598,0,0
1586465457,-48.34,-38.086,-101.074,-11.23,0,0
1586465457,-135.742,-40.039,-130.859,41.016,0,0
1586465457,-72.266,-38.574,-157.227,11.23,0,0
1586465457,39.551,-33.691,-318.359,-38.086,0,0
1586465457,-8.301,-36.133,-354.004,-18.066,0,0
1586465457,-127.441,-41.504,-265.625,41.992,0,0
1586465457,-92.773,-36.621,-392.09,37.109,0,0
1586465457,29.297,-36.621,-417.48,-33.203,0,0
1586465457,29.297,-37.598,-222.656,-29.785,0,0
1586465457,-83.984,-35.645,-586.914,44.922,0,0
1586465457,-102.051,-37.109,-625.977,62.5,0,0
1586465457,11.719,-36.133,-63.477,-2.93,0,0
1586465457,58.105,-34.668,-267.09,-34.18,0,0
1586465457,-48.828,-33.691,-441.406,14.648,0,0
1586465457,-113.77,-31.738,-169.922,48.828,0,0
1586465457,-20.508,-34.668,-15.137,7.812,0,0
1586465457,50.781,-32.715,-268.555,-32.227,0,0
1586465457,-28.809,-26.855,-445.312,0.977,0,0
1586465457,-135.254,-28.809,-273.926,48.828,0,0
1586465457,-79.102,-30.762,-200.684,18.066,0,0
1586465457,26.855,-31.738,-426.758,-41.504,0,0
1586465457,-12.695,-30.273,-770.508,-36.133,0,0
1586465457,-110.352,-25.879,-315.918,18.066,0,0
1586465457,-90.82,-30.273,231.934,19.531,0,0
1586465457,29.785,-33.203,-35.645,-29.297,0,0
1586465457,45.41,-29.785,-245.117,-31.25,0,0
1586465457,-63.477,-29.297,56.641,30.762,0,0
1586465457,-93.75,-33.203,227.051,62.5,0,0
1586465457,12.695,-34.18,-28.32,10.254,0,0
1586465457,67.383,-33.691,-194.336,-21.973,0,0
1586465457,-36.133,-36.133,-217.773,18.066,0,0
1586465457,-114.746,-37.109,-42.48,58.105,0,0
1586465457,-35.645,-37.598,-368.652,29.297,0,0
1586465457,50.293,-34.18,-815.918,-15.625,0,0
1586465457,-16.602,-32.227,-211.426,11.23,0,0
1586465457,-119.629,-33.691,144.043,57.129,0,0
1586465457,-74.219,-32.715,38.086,39.062,0,0
1586465457,35.156,-28.809,-68.848,-14.16,0,0
1586465457,20.02,-22.949,-55.176,-21.484,0,0
1586465457,-98.633,-21.973,-25.391,36.621,0,0
1586465457,-109.375,-22.461,-45.41,52.246,0,0
1586465457,8.789,-22.949,-28.32,-0.977,0,0
1586465457,31.738,-25.879,-305.664,-18.066,0,0
1586465457,-90.332,-28.32,-391.602,29.785,0,0
1586465457,-133.301,-29.785,-416.504,55.176,0,0
1586465457,-19.043,-29.297,-190.918,1.465,0,0
1586465457,54.688,-33.203,19.043,-37.109,0,0
1586465457,-22.949,-34.668,-173.34,6.348,0,0
1586465457,-100.098,-28.32,-166.504,46.387,0,0
1586465457,-40.039,-20.996,122.07,2.441,0,0
1586465457,51.27,-16.113,74.707,-49.316,0,0
1586465457,-3.906,-10.742,-190.43,-16.602,0,0
1586465457,-121.582,-7.324,-14.648,40.039,0,0
1586465457,-79.59,-5.371,195.801,31.25,0,0
1586465457,29.785,-4.883,-104.98,-39.551,0,0
1586465457,20.996,-0.977,-684.082,-47.852,0,0
1586465457,-86.914,-1.465,-604.98,3.418,0,0
1586465457,-99.609,-1.465,98.633,8.301,0,0
1586465457,18.066,5.371,77.637,-45.41,0,0
1586465457,51.27,4.883,-209.961,-68.359,0,0
1586465457,-62.988,-0.977,-107.422,-18.555,0,0
1586465457,-112.305,-5.859,178.711,-4.395,0,0
1586465457,-7.812,-7.812,23.438,-55.176,0,0
1586465457,60.547,-6.836,-478.516,-86.914,0,0
1586465457,-23.926,-6.836,-406.25,-42.969,0,0
1586465457,-104.492,-7.324,-20.508,10.742,0,0
1586465457,-37.109,-9.766,-226.074,-4.395,0,0
1586465457,53.223,-10.254,-858.398,-60.059,0,0
1586465457,6.836,-5.371,-670.41,-69.336,0,0
1586465457,-108.887,-7.812,34.668,-22.461,0,0
1586465457,-84.473,-13.184,-115.723,-29.297,0,0
1586465457,34.18,-15.137,-530.762,-89.844,0,0
1586465457,24.414,-17.578,-362.793,-104.98,0,0
1586465457,-88.379,-19.043,-204.102,-67.871,0,0
1586465457,-107.91,-21.484,-162.109,-58.105,0,0
1586465457,5.371,-22.461,-244.141,-105.469,0,0
1586465457,61.035,-23.438,-236.328,-124.023,0,0
1586465457,-40.527,-23.926,-195.312,-61.035,0,0
1586465457,-122.07,-20.996,-347.168,-2.441,0,0
1586465457,-23.438,-21.484,-546.875,-39.062,0,0
1586465457,74.219,-15.625,-529.785,-85.938,0,0
1586465457,1.465,-14.16,-310.547,-33.691,0,0
1586465457,-97.168,-13.672,-580.566,19.043,0,0
1586465457,-34.668,-10.254,-636.719,-13.184,0,0
1586465457,79.59,-14.16,-308.105,-65.43,0,0
1586465457,31.738,-14.648,-471.191,-46.875,0,0
1586465457,-83.008,-20.02,-467.285,10.742,0,0
1586465457,-69.824,-22.949,-284.668,5.371,0,0
1586465457,37.109,-21.973,-295.41,-54.688,0,0
1586465457,40.039,-24.414,-516.113,-68.848,0,0
1586465457,-73.242,-22.949,-720.215,-32.715,0,0
1586465457,-99.609,-23.438,-429.688,-28.32,0,0
1586465457,20.02,-26.855,-153.32,-75.195,0,0
1586465457,83.496,-31.25,-539.062,-98.633,0,0
1586465457,-20.02,-32.715,-865.723,-54.688,0,0
1586465457,-100.098,-26.855,-379.395,-17.578,0,0
1586465457,-12.695,-26.367,-43.457,-52.734,0,0
1586465457,79.59,-23.926,-433.594,-106.445,0,0
1586465457,4.883,-24.902,-545.41,-89.355,0,0
1586465457,-92.773,-27.344,-83.496,-20.996,0,0
1586465457,-24.902,-22.461,58.105,-12.207,0,0
1586465457,86.426,-21.973,-302.734,-59.082,0,0
1586465457,44.922,-22.461,-627.93,-52.246,0,0
1586465457,-90.332,-20.996,-377.93,-1.953,0,0
1586465457,-94.238,-25.879,79.59,12.695,0,0
1586465458,23.926,-33.691,-455.566,-30.762,0,0
1586465458,50.781,-28.809,-802.246,-33.203,0,0
1586465458,-56.641,-20.02,-109.863,30.762,0,0
1586465458,-103.516,-25.391,35.645,41.016,0,0
1586465458,-10.742,-24.902,-206.543,-9.766,0,0
1586465458,44.434,-26.367,-172.363,-47.363,0,0
1586465458,-25.391,-27.344,30.273,-0.488,0,0
1586465458,-112.305,-22.461,46.875,37.109,0,0
1586465458,-41.504,-20.02,-112.793,-25.391,0,0
1586465458,65.918,-25.879,-341.797,-80.566,0,0
1586465458,11.719,-31.738,-293.945,-48.34,0,0
1586465458,-79.102,-29.785,-80.078,29.785,0,0
1586465458,-56.152,-31.738,-457.031,1.953,0,0
1586465458,44.922,-28.809,-370.117,-95.703,0,0
1586465458,35.156,-27.832,-48.34,-96.191,0,0
1586465458,-63.965,-27.344,-110.352,-15.137,0,0
1586465458,-65.918,-24.902,9.277,14.648,0,0
1586465458,46.875,-32.227,98.633,-32.715,0,0
1586465458,99.609,-33.691,-227.539,-54.688,0,0
1586465458,0.977,-33.203,-390.137,4.883,0,0
1586465458,-44.922,-38.086,-101.074,54.199,0,0
1586465458,48.34,-42.48,-151.367,21.973,0,0
1586465458,112.793,-41.504,-456.055,-14.16,0,0
1586465458,22.461,-47.363,-496.094,20.508,0,0
1586465458,-51.27,-41.504,-150.391,79.102,0,0
1586465458,30.273,-39.062,102.051,64.453,0,0
1586465458,116.211,-48.828,-66.895,5.371,0,0
1586465458,53.223,-43.457,-689.941,9.277,0,0
1586465458,-67.383,-38.086,-662.109,69.824,0,0
1586465458,-51.758,-35.156,18.555,54.199,0,0
1586465458,69.824,-33.203,-210.449,-10.742,0,0
1586465458,71.289,-36.621,-459.473,-30.273,0,0
1586465458,-31.738,-33.691,-233.887,13.184,0,0
1586465458,-51.27,-30.273,-254.883,40.527,0,0
1586465458,46.875,-33.203,-586.426,0,0,0
1586465458,85.449,-29.785,-909.18,-21.973,0,0
1586465458,-24.414,-21.973,-572.266,22.461,0,0
1586465458,-85.938,-25.879,-102.051,59.082,0,0
1586465458,11.23,-27.344,-302.246,19.043,0,0
1586465458,88.379,-26.367,-496.582,-31.738,0,0
1586465458,2.441,-26.367,-240.234,0.488,0,0
1586465458,-98.145,-27.832,-43.457,43.945,0,0
1586465458,-36.133,-31.25,-290.527,10.254,0,0
1586465458,72.754,-29.297,-496.094,-44.434,0,0
1586465458,22.461,-31.25,-379.883,-22.461,0,0
1586465458,-92.773,-35.645,-383.789,41.992,0,0
1586465458,-75.684,-38.086,-703.613,49.316,0,0
1586465458,31.738,-36.621,-851.074,0.488,0,0
1586465458,33.691,-37.109,-561.523,-29.297,0,0
1586465458,-89.844,-39.062,-540.527,6.836,0,0
1586465458,-122.07,-33.691,-413.086,32.715,0,0
1586465458,-31.738,-33.203,-253.418,-16.602,0,0
1586465458,-4.395,-32.227,-273.438,-65.918,0,0
1586465458,-108.887,-33.691,-364.746,-27.344,0,0
1586465458,-171.387,-34.668,-322.754,22.949,0,0
1586465458,-75.195,-34.18,-120.605,-17.09,0,0
1586465458,1.465,-39.062,-183.594,-66.895,0,0
1586465458,-66.895,-38.086,-558.105,-50.293,0,0
1586465458,-160.645,-32.227,-631.348,-4.883,0,0
1586465458,-105.957,-28.809,-240.723,-28.32,0,0
1586465458,-1.465,-30.273,-188.477,-92.285,0,0
1586465458,-47.363,-32.715,-557.129,-83.496,0,0
1586465458,-155.273,-31.25,-557.617,-25.879,0,0
1586465458,-143.066,-32.227,-217.773,-19.043,0,0
1586465458,-35.645,-30.762,-386.719,-72.754,0,0
1586465458,-10.742,-30.762,-771.973,-85.449,0,0
1586465458,-114.746,-35.156,-785.645,-29.785,0,0
1586465458,-151.367,-31.738,-163.574,-9.766,0,0
1586465458,-41.504,-33.203,-22.461,-52.246,0,0
1586465458,34.18,-35.156,-659.668,-64.941,0,0
1586465458,-41.016,-31.738,-771.973,-19.531,0,0
1586465458,-118.652,-32.715,-177.734,11.719,0,0
1586465458,-47.852,-29.785,-90.332,-14.648,0,0
1586465458,49.805,-26.367,-576.66,-61.035,0,0
1586465458,-13.184,-24.902,-562.5,-44.922,0,0
1586465458,-113.281,-23.926,-54.688,8.301,0,0
1586465458,-58.105,-24.414,-175.293,-3.906,0,0
1586465458,51.758,-23.438,-390.625,-65.43,0,0
1586465458,23.926,-29.785,-324.219,-67.383,0,0
1586465458,-98.633,-35.156,-247.07,-17.09,0,0
1586465458,-97.168,-37.109,-112.305,-6.348,0,0
1586465458,33.691,-31.738,-403.809,-58.594,0,0
1586465458,70.312,-26.367,-514.648,-69.336,0,0
1586465458,-54.688,-22.461,-116.699,-16.602,0,0
1586465458,-103.027,-23.926,-187.988,14.648,0,0
1586465458,15.137,-21.484,-651.367,-15.625,0,0
1586465458,75.195,-13.672,-449.707,-62.5,0,0
1586465458,-16.113,-11.719,-99.609,-35.156,0,0
1586465458,-84.473,-24.902,-219.238,29.785,0,0
1586465458,-2.93,-28.809,-266.602,13.184,0,0
1586465458,92.773,-21.973,-216.797,-49.805,0,0
1586465458,18.555,-23.926,-283.203,-39.062,0,0
1586465458,-83.496,-24.414,-307.129,11.23,0,0
1586465458,-51.27,-24.414,-375.977,-14.16,0,0
1586465458,41.504,-25.391,-479.492,-75.684,0,0
1586465458,45.41,-26.855,-498.047,-71.777,0,0
1586465458,-79.59,-30.273,-595.215,-10.254,0,0
1586465458,-115.723,-26.367,-359.375,15.625,0,0
1586465458,-8.301,-24.414,-21.973,-43.457,0,0
1586465458,24.902,-24.414,-204.59,-65.918,0,0
1586465458,-87.891,-27.832,-604.492,-3.906,0,0
1586465458,-155.762,-36.621,-397.949,13.184,0,0
1586465458,-48.34,-33.691,42.969,-40.039,0,0
1586465458,46.875,-25.391,-264.648,-70.312,0,0
1586465458,-25.391,-29.785,-450.684,-21.973,0,0
1586465458,-109.863,-34.18,-333.984,37.598,0,0
1586465458,-62.5,-30.273,-192.383,9.277,0,0
1586465458,29.785,-41.992,-266.113,-57.129,0,0
1586465458,-3.906,-44.434,-762.207,-40.527,0,0
1586465458,-90.82,-32.227,-501.953,46.387,0,0
1586465458,-65.43,-34.18,111.816,53.223,0,0
1586465458,21.484,-41.992,-77.148,-20.02,0,0
1586465458,24.902,-41.016,-306.641,-25.879,0,0
1586465458,-63.477,-36.621,-66.895,45.898,0,0
1586465458,-81.543,-41.992,69.824,76.172,0,0
1586465458,26.367,-41.016,-143.066,25.879,0,0
1586465458,82.52,-35.645,-332.031,-6.348,0,0
1586465458,-25.879,-39.551,-328.125,37.598,0,0
1586465458,-109.863,-39.062,-180.664,67.383,0,0
1586465458,-23.438,-41.016,-496.582,25.879,0,0
1586465458,64.453,-41.016,-755.859,-15.137,0,0
1586465458,-3.906,-38.574,-173.34,17.09,0,0
1586465458,-105.957,-20.996,14.648,67.383,0,0
1586465458,-49.316,-29.297,-163.574,56.641,0,0
1586465458,57.129,-44.434,-391.602,8.301,0,0
1586465458,13.184,-32.227,-265.137,19.043,0,0
1586465458,-98.145,-31.738,-96.191,82.52,0,0
1586465458,-90.82,-32.715,-145.02,84.961,0,0
1586465458,17.578,-32.227,-203.125,24.902,0,0
1586465458,22.461,-29.785,-465.332,21.484,0,0
1586465458,-95.703,-32.227,-611.328,75.684,0,0
1586465458,-123.047,-33.203,-801.758,93.262,0,0
1586465458,0.977,-29.785,-527.832,45.41,0,0
1586465458,67.383,-32.715,-266.113,0.488,0,0
1586465458,-27.344,-37.598,-424.316,34.668,0,0
1586465458,-94.727,-33.203,-269.531,81.055,0,0
1586465458,-4.395,-23.926,-78.613,68.359,0,0
1586465458,84.961,-31.25,-231.934,21.973,0,0
1586465458,25.391,-38.574,-496.094,53.223,0,0
1586465458,-73.73,-35.156,-498.047,127.93,0,0
1586465458,-32.715,-34.668,-231.934,122.07,0,0
1586465458,78.613,-36.621,-365.723,72.754,0,0
1586465458,50.293,-30.762,-861.328,66.895,0,0
1586465458,-56.641,-26.367,-780.273,127.441,0,0
1586465458,-42.48,-26.855,-145.996,149.414,0,0
1586465458,70.801,-26.855,-146.973,83.008,0,0
1586465458,94.238,-27.344,-490.723,52.734,0,0
1586465458,-20.996,-30.762,-344.238,102.051,0,0
1586465458,-78.125,-38.086,-51.758,118.164,0,0
1586465458,21.484,-33.691,-212.402,48.34,0,0
1586465458,98.145,-29.297,-522.949,17.578,0,0
1586465458,8.301,-36.621,-421.387,56.152,0,0
1586465458,-84.473,-33.691,-178.711,83.496,0,0
1586465458,0,-36.133,-419.434,50.781,0,0
1586465458,101.074,-39.062,-846.191,-14.16,0,0
1586465458,32.715,-34.18,-629.395,-12.695,0,0
1586465458,-86.426,-35.645,-125.977,32.227,0,0
1586465458,-61.523,-39.062,-253.906,37.598,0,0
1586465458,30.273,-29.785,-833.984,-15.625,0,0
1586465458,5.371,-29.297,-578.125,-27.832,0,0
1586465458,-109.863,-40.527,-100.586,20.508,0,0
1586465458,-123.047,-40.039,-207.031,17.578,0,0
1586465458,-6.836,-38.086,-339.844,-43.457,0,0
1586465458,19.043,-36.621,-349.609,-71.289,0,0
1586465458,-92.285,-36.621,-288.574,-14.16,0,0
1586465458,-144.531,-38.086,-495.605,26.367,0,0
1586465458,-61.035,-35.645,-641.602,-17.578,0,0
1586465458,8.789,-36.133,-312.012,-57.129,0,0
1586465458,-77.637,-32.227,-271.973,-17.578,0,0
1586465458,-181.641,-28.809,-564.941,42.969,0,0
1586465458,-104.004,-37.109,-480.957,38.086,0,0
1586465458,1.465,-38.086,-216.797,-14.648,0,0
1586465458,-58.105,-40.039,-330.078,-4.395,0,0
1586465458,-168.457,-38.574,-373.047,48.34,0,0
1586465458,-135.742,-35.156,-190.43,42.969,0,0
1586465458,-9.277,-36.621,-149.414,-8.301,0,0
1586465458,-4.395,-28.809,-398.926,-13.672,0,0
1586465458,-128.906,-28.32,-567.871,34.18,0,0
1586465458,-159.18,-42.969,-445.312,44.922,0,0
1586465458,-46.875,-41.504,-272.949,-7.812,0,0
1586465458,3.906,-34.18,-493.652,-30.273,0,0
1586465458,-101.074,-33.203,-880.371,21.484,0,0
1586465458,-168.457,-35.156,-391.602,48.828,0,0
1586465458,-74.219,-39.062,-152.344,7.324,0,0
1586465458,11.23,-39.062,-663.574,-41.016,0,0
1586465458,-61.523,-35.156,-572.266,-11.23,0,0
1586465458,-152.832,-35.645,-114.258,48.828,0,0
1586465458,-96.191,-36.133,-67.383,19.043,0,0
1586465458,7.812,-37.109,-441.406,-42.48,0,0
1586465458,-22.461,-36.621,-699.219,-31.25,0,0
1586465458,-134.766,-33.691,-504.395,28.32,0,0
1586465458,-113.281,-36.133,-161.133,29.785,0,0
1586465458,9.277,-37.598,-559.082,-40.039,0,0
1586465458,15.137,-32.227,-859.863,-57.617,0,0
1586465458,-99.609,-28.32,-267.578,3.418,0,0
1586465458,-128.906,-30.273,-71.289,34.18,0,0
1586465458,-20.996,-31.738,-291.016,-13.672,0,0
1586465458,33.203,-32.227,-341.797,-51.758,0,0
1586465458,-63.477,-31.738,-238.281,-29.297,0,0
1586465458,-138.672,-34.668,-283.203,-11.719,0,0
1586465458,-51.758,-39.551,-361.328,-43.945,0,0
1586465458,43.945,-37.109,-526.367,-78.125,0,0
1586465458,-18.555,-33.203,-499.023,-50.293,0,0
1586465458,-104.492,-35.645,-335.449,16.113,0,0
1586465458,-46.387,-39.062,-713.379,19.531,0,0
1586465458,66.406,-35.156,-626.953,-30.273,0,0
1586465458,46.875,-35.645,-316.895,-17.09,0,0
1586465458,-64.453,-38.574,-402.344,44.434,0,0
1586465458,-66.895,-37.598,-354.98,51.27,0,0
1586465458,44.922,-31.25,-225.586,4.883,0,0
1586465458,61.523,-26.367,-263.184,-9.277,0,0
1586465458,-51.758,-28.809,-409.668,48.34,0,0
1586465458,-85.938,-35.156,-299.316,81.055,0,0
1586465458,19.043,-34.18,-340.82,22.949,0,0
1586465458,79.102,-30.273,-639.16,-18.555,0,0
1586465458,-14.16,-33.691,-712.891,19.043,0,0
1586465458,-99.121,-36.133,-390.625,68.359,0,0
1586465458,-23.926,-37.109,-51.758,53.711,0,0
1586465458,72.754,-39.551,-228.027,1.953,0,0
1586465458,15.625,-37.109,-791.016,22.461,0,0
1586465458,-86.426,-31.25,-722.168,82.52,0,0
1586465458,-53.223,-35.645,-156.738,70.312,0,0
1586465458,53.223,-40.039,-333.984,11.23,0,0
1586465458,36.133,-38.574,-624.023,3.906,0,0
1586465458,-79.59,-38.574,-462.402,56.152,0,0
1586465458,-83.984,-36.133,-391.602,65.918,0,0
1586465458,23.926,-35.156,-585.938,4.883,0,0
1586465458,46.387,-29.297,-833.496,-20.508,0,0
1586465458,-59.082,-23.926,-500.488,13.672,0,0
1586465458,-113.77,-32.715,-139.648,33.691,0,0
1586465458,-14.16,-34.18,-447.266,-7.812,0,0
1586465458,58.105,-33.203,-566.406,-58.105,0,0
1586465458,-33.203,-36.621,-290.527,-36.133,0,0
1586465458,-120.117,-38.086,-80.078,3.418,0,0
1586465458,-47.363,-39.062,-338.867,-25.879,0,0
1586465458,52.246,-34.18,-549.316,-80.078,0,0
1586465458,1.953,-27.832,-436.035,-52.734,0,0
1586465458,-107.422,-26.367,-477.539,9.277,0,0
1586465458,-80.078,-23.438,-771.973,1.465,0,0
1586465458,42.969,-21.973,-860.352,-59.082,0,0
1586465458,50.293,-28.809,-436.035,-62.988,0,0
1586465458,-76.66,-31.25,-296.387,-11.23,0,0
1586465458,-113.281,-29.297,-345.215,-9.277,0,0
1586465458,5.371,-32.715,-325.684,-51.758,0,0
1586465458,62.012,-32.227,-409.668,-52.734,0,0
1586465458,-35.645,-32.227,-552.246,-2.441,0,0
1586465458,-108.887,-33.203,-432.129,15.137,0,0
1586465458,-17.09,-33.691,-253.418,-30.762,0,0
1586465458,59.57,-32.715,-337.891,-66.406,0,0
1586465458,-23.438,-31.738,-584.473,-19.043,0,0
1586465458,-110.352,-28.32,-809.57,43.457,0,0
1586465458,-46.875,-26.855,-461.914,21.484,0,0
1586465458,57.129,-31.738,-166.504,-41.016,0,0
1586465458,8.301,-31.738,-492.188,-59.57,0,0
1586465458,-104.492,-30.273,-461.914,-5.859,0,0
1586465458,-79.59,-31.738,-103.027,15.625,0,0
1586465459,36.621,-31.738,-138.672,-38.086,0,0
1586465459,39.062,-29.297,-494.141,-36.621,0,0
1586465459,-73.73,-29.785,-493.164,23.926,0,0
1586465459,-101.074,-28.32,-236.328,49.805,0,0
1586465459,2.441,-29.785,-413.574,14.648,0,0
1586465459,51.27,-27.344,-831.543,-10.742,0,0
1586465459,-48.34,-27.344,-731.445,23.438,0,0
1586465459,-113.281,-32.227,-164.551,60.059,0,0
1586465459,-24.902,-32.715,-107.422,41.504,0,0
1586465459,60.547,-38.574,-685.059,12.207,0,0
1586465459,-13.184,-33.691,-804.199,37.109,0,0
1586465459,-110.352,-24.902,-178.711,91.797,0,0
1586465459,-59.082,-31.25,-117.676,85.938,0,0
1586465459,49.805,-32.715,-463.379,34.668,0,0
1586465459,23.926,-23.926,-432.617,49.805,0,0
1586465459,-87.891,-20.508,-160.645,118.652,0,0
1586465459,-69.824,-23.926,-216.797,130.859,0,0
1586465459,41.504,-26.367,-598.633,61.035,0,0
1586465459,45.41,-27.832,-703.125,30.273,0,0
1586465459,-69.336,-32.227,-486.328,79.59,0,0
1586465459,-95.215,-31.25,-444.824,102.051,0,0
1586465459,11.719,-26.367,-747.07,42.969,0,0
1586465459,56.641,-22.461,-565.43,-10.254,0,0
1586465459,-39.062,-23.926,-175.293,33.203,0,0
1586465459,-116.211,-28.32,-193.848,80.566,0,0
1586465459,-37.109,-31.25,-224.609,43.457,0,0
1586465459,68.359,-26.367,-166.504,-1.465,0,0
1586465459,9.766,-28.809,-123.535,17.578,0,0
1586465459,-122.07,-34.18,-183.594,43.457,0,0
1586465459,-88.379,-33.203,-379.883,25.391,0,0
1586465459,36.133,-33.203,-423.828,-15.625,0,0
1586465459,17.09,-32.715,-275.879,-19.043,0,0
1586465459,-104.004,-36.621,-598.633,28.32,0,0
1586465459,-115.723,-35.156,-731.934,24.902,0,0
1586465459,-5.371,-32.715,-375,-43.945,0,0
1586465459,26.855,-38.574,-428.223,-62.012,0,0
1586465459,-77.637,-41.016,-390.625,-4.395,0,0
1586465459,-129.395,-43.945,-56.152,46.387,0,0
1586465459,-27.344,-45.41,43.457,26.855,0,0
1586465459,46.875,-45.41,-275.879,-22.461,0,0
1586465459,-41.016,-44.922,-385.254,1.465,0,0
1586465459,-120.605,-45.898,-292.48,40.527,0,0
1586465459,-42.969,-49.316,-223.633,3.906,0,0
1586465459,52.734,-45.898,-354.004,-54.199,0,0
1586465459,-1.465,-40.527,-791.504,-43.945,0,0
1586465459,-121.094,-37.598,-378.418,17.578,0,0
1586465459,-93.262,-40.527,123.047,4.883,0,0
1586465459,34.18,-44.434,-192.383,-58.594,0,0
1586465459,37.109,-40.527,-427.734,-45.41,0,0
1586465459,-72.266,-36.133,-270.508,11.719,0,0
1586465459,-89.844,-40.527,-29.785,23.438,0,0
1586465459,24.902,-42.48,-256.836,-24.902,0,0
1586465459,62.988,-38.574,-497.559,-58.594,0,0
1586465459,-41.016,-38.574,-471.68,-20.508,0,0
1586465459,-96.191,-40.527,-372.559,23.438,0,0
1586465459,-3.418,-39.062,-600.586,5.371,0,0
1586465459,72.754,-32.227,-675.293,-36.621,0,0
1586465459,-6.348,-30.273,-151.367,-16.602,0,0
1586465459,-111.328,-36.621,25.391,32.227,0,0
1586465459,-57.617,-38.574,-535.156,10.254,0,0
1586465459,62.5,-37.109,-739.746,-66.895,0,0
1586465459,23.926,-38.574,-205.566,-71.777,0,0
1586465459,-98.633,-41.992,-109.863,-24.902,0,0
1586465459,-83.496,-43.945,-136.719,-74.707,0,0
1586465459,36.133,-39.062,-286.133,-162.598,0,0
1586465459,36.621,-38.574,-458.008,-172.852,0,0
1586465459,-86.426,-42.48,-414.551,-107.422,0,0
1586465459,-108.398,-38.574,-521.973,-52.734,0,0
1586465459,2.441,-33.203,-295.898,-91.797,0,0
1586465459,51.758,-35.645,-20.02,-115.234,0,0
1586465459,-51.758,-37.598,-193.848,-50.781,0,0
1586465459,-122.07,-37.598,-143.066,-3.906,0,0
1586465459,-39.551,-32.227,40.039,-43.945,0,0
1586465459,41.504,-37.109,-118.652,-108.398,0,0
1586465459,-24.902,-41.016,-353.516,-70.312,0,0
1586465459,-126.953,-37.598,-184.082,-9.277,0,0
1586465459,-65.43,-38.086,31.25,-24.414,0,0
1586465459,45.41,-32.227,-234.863,-64.941,0,0
1586465459,14.16,-34.668,-731.934,-62.988,0,0
1586465459,-93.75,-38.574,-800.781,-17.09,0,0
1586465459,-95.703,-40.527,-128.906,-11.719,0,0
1586465459,29.297,-38.086,6.348,-64.941,0,0
1586465459,45.898,-32.227,-287.109,-62.5,0,0
1586465459,-72.266,-34.18,-210.938,-1.953,0,0
1586465459,-112.305,-33.691,53.223,18.066,0,0
1586465459,-13.184,-29.297,-53.711,-20.02,0,0
1586465459,43.457,-30.273,-368.164,-41.504,0,0
1586465459,-59.082,-33.691,-214.355,20.02,0,0
1586465459,-133.301,-29.297,21.484,61.523,0,0
1586465459,-41.016,-28.809,-207.031,14.648,0,0
1586465459,39.062,-25.879,-583.496,-48.34,0,0
1586465459,-24.414,-19.531,-304.199,-32.715,0,0
1586465459,-122.07,-25.391,203.125,29.297,0,0
1586465459,-96.191,-32.227,37.598,16.113,0,0
1586465459,16.602,-33.691,-623.535,-49.316,0,0
1586465459,5.859,-33.203,-371.094,-41.992,0,0
1586465459,-105.957,-35.645,200.684,20.508,0,0
1586465459,-103.516,-36.133,94.238,34.668,0,0
1586465459,15.625,-36.621,-92.285,-16.113,0,0
1586465459,37.109,-39.551,-82.52,-36.133,0,0
1586465459,-73.73,-44.922,62.012,18.066,0,0
1586465459,-122.07,-43.945,-229.492,42.48,0,0
1586465459,-26.367,-35.645,-466.797,-5.371,0,0
1586465459,49.805,-28.32,-199.707,-42.969,0,0
1586465459,-30.273,-27.344,-97.656,0.488,0,0
1586465459,-120.605,-31.25,-236.816,32.227,0,0
1586465459,-49.805,-36.133,-196.777,-9.277,0,0
1586465459,55.176,-39.551,-30.762,-38.086,0,0
1586465459,1.465,-39.062,-187.988,-5.859,0,0
1586465459,-108.887,-36.621,-348.633,35.156,0,0
1586465459,-74.707,-37.109,-194.824,10.254,0,0
1586465459,39.551,-40.039,-76.172,-42.48,0,0
1586465459,19.531,-40.527,-292.969,-37.109,0,0
1586465459,-90.82,-37.598,-562.012,14.16,0,0
1586465459,-97.168,-36.621,-376.465,19.531,0,0
1586465459,15.137,-39.551,-54.688,-21.484,0,0
1586465459,41.016,-38.086,-364.258,-33.691,0,0
1586465459,-63.965,-36.621,-502.441,32.715,0,0
1586465459,-103.516,-37.109,-55.176,89.844,0,0
1586465459,-8.789,-32.227,120.605,40.039,0,0
1586465459,66.895,-29.785,-377.93,-14.648,0,0
1586465459,-7.324,-30.273,-706.055,33.203,0,0
1586465459,-98.633,-32.227,-71.777,86.426,0,0
1586465459,-35.645,-35.156,121.582,48.828,0,0
1586465459,60.547,-37.109,-357.422,8.301,0,0
1586465459,11.719,-36.621,-580.566,41.016,0,0
1586465459,-96.68,-34.18,-334.961,77.637,0,0
1586465459,-66.895,-38.574,44.434,55.664,0,0
1586465459,32.715,-43.945,-454.102,7.812,0,0
1586465459,16.113,-39.551,-800.781,-12.695,0,0
1586465459,-92.285,-34.18,-87.402,19.531,0,0
1586465459,-111.816,-36.133,76.66,47.852,0,0
1586465459,-8.789,-36.133,-177.246,0.977,0,0
1586465459,42.969,-32.715,-309.082,-30.762,0,0
1586465459,-56.152,-30.762,-176.27,25.879,0,0
1586465459,-134.766,-36.133,-46.875,43.457,0,0
1586465459,-42.48,-37.598,-217.773,-16.113,0,0
1586465459,33.691,-37.109,-526.855,-63.965,0,0
1586465459,-43.457,-36.621,-590.332,-46.875,0,0
1586465459,-122.07,-35.645,-425.781,17.578,0,0
1586465459,-50.293,-30.273,-720.703,3.906,0,0
1586465459,52.246,-27.344,-594.727,-62.988,0,0
1586465459,22.949,-29.297,-209.473,-46.387,0,0
1586465459,-77.148,-32.715,-307.617,12.695,0,0
1586465459,-79.102,-34.668,-362.793,17.09,0,0
1586465459,24.902,-32.715,-208.008,-37.109,0,0
1586465459,45.41,-30.273,-274.414,-39.062,0,0
1586465459,-74.707,-27.832,-385.254,24.902,0,0
1586465459,-110.352,-29.297,-307.129,30.762,0,0
1586465459,1.465,-32.715,-386.23,-17.09,0,0
1586465459,48.34,-31.738,-567.383,-37.598,0,0
1586465459,-34.18,-33.203,-847.656,0,0,0
1586465459,-100.098,-36.133,-739.746,41.992,0,0
1586465459,-27.344,-38.574,-215.82,33.203,0,0
1586465459,59.57,-41.992,-427.246,2.441,0,0
1586465459,2.441,-36.133,-624.512,26.367,0,0
1586465459,-105.957,-35.645,-330.566,65.918,0,0
1586465459,-64.941,-41.992,-81.055,38.086,0,0
1586465459,56.641,-41.504,-345.215,-13.184,0,0
1586465459,15.625,-36.133,-620.117,4.395,0,0
1586465459,-101.074,-31.738,-364.746,71.289,0,0
1586465459,-97.656,-32.715,-344.727,63.965,0,0
1586465459,12.695,-36.621,-599.121,18.066,0,0
1586465459,49.805,-35.645,-909.18,18.066,0,0
1586465459,-67.871,-31.738,-610.352,41.504,0,0
1586465459,-123.535,-31.738,-25.391,65.43,0,0
1586465459,-24.902,-30.762,-343.262,23.926,0,0
1586465459,53.223,-25.391,-810.547,-28.809,0,0
1586465459,-20.996,-21.484,-473.633,0,0,0
1586465459,-128.906,-27.832,-273.438,54.199,0,0
1586465459,-64.941,-28.809,-544.922,34.668,0,0
1586465459,50.293,-22.461,-614.746,-30.273,0,0
1586465459,8.789,-19.043,-425.781,-30.273,0,0
1586465459,-109.863,-24.414,-452.148,42.969,0,0
1586465459,-77.637,-28.32,-671.875,66.406,0,0
1586465459,40.039,-27.832,-636.23,-10.742,0,0
1586465459,31.738,-27.832,-466.797,-27.832,0,0
1586465459,-87.891,-30.273,-402.832,47.363,0,0
1586465459,-110.84,-32.715,-567.871,62.012,0,0
1586465459,13.672,-26.855,-681.152,-29.785,0,0
1586465459,68.359,-23.438,-543.945,-62.012,0,0
1586465459,-39.551,-23.926,-551.758,0.977,0,0
1586465459,-101.562,-26.855,-606.445,33.691,0,0
1586465459,-27.344,-27.344,-525.391,-6.836,0,0
1586465459,36.621,-26.855,-660.645,-39.062,0,0
1586465459,-20.508,-25.391,-905.762,5.371,0,0
1586465459,-106.445,-26.855,-914.551,69.824,0,0
1586465459,-41.992,-28.809,-597.168,32.715,0,0
1586465459,43.457,-38.574,-447.266,-41.504,0,0
1586465459,-5.371,-47.363,-728.516,-27.344,0,0
1586465459,-94.727,-43.457,-994.141,25.879,0,0
1586465459,-63.477,-36.133,-655.762,18.066,0,0
1586465459,52.246,-34.18,-346.68,-36.621,0,0
1586465459,34.18,-36.133,-752.441,-42.48,0,0
1586465459,-78.125,-33.691,-810.059,3.418,0,0
1586465459,-100.098,-30.762,-318.359,-3.418,0,0
1586465459,-3.906,-30.762,-278.32,-59.082,0,0
1586465459,41.504,-31.738,-788.086,-75.195,0,0
1586465459,-57.617,-27.832,-907.715,-35.645,0,0
1586465459,-107.91,-26.855,-464.844,0,0,0
1586465459,-12.207,-33.203,-484.375,-35.645,0,0
1586465459,55.176,-37.598,-878.418,-67.871,0,0
1586465459,-27.832,-30.762,-858.398,-36.133,0,0
1586465459,-129.395,-29.297,-243.164,-3.906,0,0
1586465459,-71.777,-35.156,-123.047,-31.25,0,0
1586465459,30.762,-32.227,-516.113,-83.984,0,0
1586465459,-15.625,-32.227,-455.566,-82.52,0,0
1586465459,-125.488,-34.18,-84.473,-33.203,0,0
1586465459,-106.934,-34.18,-49.805,-30.762,0,0
1586465459,2.441,-36.133,-730.469,-77.637,0,0
1586465459,6.836,-27.832,-897.461,-94.238,0,0
1586465459,-105.957,-25.391,-201.66,-43.945,0,0
1586465459,-135.742,-33.203,-125.488,-9.277,0,0
1586465459,-29.297,-29.785,-757.324,-53.223,0,0
1586465459,26.367,-27.344,-715.82,-89.355,0,0
1586465459,-59.57,-30.273,-313.965,-56.641,0,0
1586465459,-125.977,-32.227,-309.57,-8.301,0,0
1586465459,-41.992,-34.668,-208.008,-29.785,0,0
1586465459,37.598,-31.25,-92.285,-96.68,0,0
1586465459,-32.715,-25.879,-79.59,-94.727,0,0
1586465459,-132.812,-28.809,-144.043,-42.969,0,0
1586465459,-90.82,-33.691,-293.457,-56.152,0,0
1586465459,19.531,-31.25,-297.363,-101.074,0,0
1586465459,-11.719,-34.18,-218.262,-88.867,0,0
1586465459,-121.094,-30.273,-334.473,-43.945,0,0
1586465459,-111.816,-24.414,-186.035,-45.41,0,0
1586465459,-4.883,-26.367,35.645,-96.191,0,0
1586465459,16.113,-27.832,-150.391,-96.68,0,0
1586465459,-96.191,-28.809,-409.18,-33.203,0,0
1586465459,-129.883,-27.832,-240.723,-2.93,0,0
1586465459,-16.602,-27.344,-143.555,-55.176,0,0
1586465459,36.133,-23.438,-305.176,-95.215,0,0
1586465459,-61.523,-24.902,-607.422,-62.012,0,0
1586465459,-136.23,-29.785,-562.012,-27.832,0,0
1586465459,-59.082,-28.32,-228.027,-57.129,0,0
1586465459,42.48,-22.461,-298.828,-98.633,0,0
1586465459,-14.648,-22.949,-829.59,-61.035,0,0
1586465459,-125,-19.043,-600.586,-4.883,0,0
1586465459,-79.102,-18.066,138.184,-27.832,0,0
1586465459,37.598,-25.879,-271.484,-97.656,0,0
1586465459,23.926,-23.926,-735.84,-96.191,0,0
1586465459,-83.008,-16.602,-169.434,-20.508,0,0
1586465459,-82.031,-17.578,184.082,-2.93,0,0
1586465459,34.18,-22.949,-196.777,-63.477,0,0
1586465459,65.918,-25.879,-446.289,-74.219,0,0
1586465459,-46.875,-28.809,-300.293,-4.395,0,0
1586465459,-99.609,-32.715,-155.273,30.273,0,0
1586465459,3.418,-33.691,-539.551,-3.418,0,0
1586465459,76.172,-27.832,-797.852,-37.109,0,0
1586465459,-6.348,-26.855,-223.145,-20.508,0,0
1586465459,-88.867,-33.691,90.332,20.02,0,0
1586465459,-22.949,-36.133,-65.918,2.441,0,0
1586465459,64.941,-35.156,-303.711,-41.992,0,0
1586465459,2.441,-33.203,-162.598,-23.926,0,0
1586465459,-106.934,-31.25,-70.801,28.809,0,0
1586465459,-73.73,-33.203,-166.504,28.809,0,0
1586465460,42.969,-36.621,-179.688,-15.625,0,0
1586465460,34.18,-36.621,-389.16,-20.996,0,0
1586465460,-89.844,-37.109,-465.82,35.156,0,0
1586465460,-113.281,-36.133,-602.539,54.199,0,0
1586465460,3.418,-37.109,-611.816,-0.977,0,0
1586465460,47.363,-36.133,-254.395,-30.273,0,0
1586465460,-58.594,-35.156,-242.676,15.137,0,0
1586465460,-111.328,-37.598,-197.266,45.41,0,0
1586465460,-9.766,-35.156,-36.133,-5.371,0,0
1586465460,72.266,-33.691,-181.152,-41.016,0,0
1586465460,-3.906,-33.203,-395.996,2.441,0,0
1586465460,-90.82,-31.738,-243.164,43.945,0,0
1586465460,-19.043,-32.715,-35.645,15.137,0,0
1586465460,85.449,-34.668,-383.789,-35.156,0,0
1586465460,31.738,-36.133,-871.094,-19.043,0,0
1586465460,-83.008,-30.762,-732.91,39.551,0,0
1586465460,-62.012,-28.809,-109.863,27.832,0,0
1586465460,61.035,-31.25,-174.316,-28.809,0,0
1586465460,62.5,-27.344,-504.395,-47.363,0,0
1586465460,-50.781,-23.926,-508.301,11.719,0,0
1586465460,-59.082,-23.438,-196.777,61.523,0,0
1586465460,38.574,-25.879,-193.848,-2.93,0,0
1586465460,62.5,-23.926,-524.902,-67.383,0,0
1586465460,-41.992,-25.391,-399.414,-42.969,0,0
1586465460,-102.539,-31.25,-102.539,-7.324,0,0
1586465460,-18.066,-35.645,-270.02,-41.504,0,0
1586465460,57.617,-34.18,-680.176,-89.355,0,0
1586465460,-11.23,-30.762,-431.641,-55.664,0,0
1586465460,-104.492,-31.25,-5.859,5.371,0,0
1586465460,-48.828,-29.297,-188.477,5.859,0,0
1586465460,52.246,-28.809,-772.461,-30.273,0,0
1586465460,19.531,-27.344,-630.859,-12.207,0,0
1586465460,-98.145,-32.227,-123.047,44.434,0,0
1586465460,-84.961,-36.621,-177.246,38.086,0,0
1586465460,36.621,-32.715,-520.02,-29.297,0,0
1586465460,41.504,-33.203,-474.121,-40.527,0,0
1586465460,-75.684,-36.621,-164.062,18.066,0,0
1586465460,-114.746,-38.574,-445.801,41.504,0,0
1586465460,-8.789,-32.227,-718.75,-3.906,0,0
1586465460,49.805,-24.902,-393.555,-35.156,0,0
1586465460,-44.922,-29.297,-231.934,2.93,0,0
1586465460,-117.188,-30.273,-386.23,41.016,0,0
1586465460,-36.133,-27.344,-372.07,1.953,0,0
1586465460,50.781,-29.785,-342.773,-56.152,0,0
1586465460,-9.766,-32.715,-446.777,-44.922,0,0
1586465460,-109.863,-32.715,-519.043,3.906,0,0
1586465460,-64.453,-32.227,-365.723,-8.789,0,0
1586465460,51.27,-33.691,-222.168,-82.031,0,0
1586465460,33.203,-34.18,-455.566,-93.262,0,0
1586465460,-81.543,-34.18,-628.906,-24.414,0,0
1586465460,-78.613,-31.25,-433.105,-4.883,0,0
1586465460,33.203,-30.762,-386.23,-59.57,0,0
1586465460,49.316,-32.227,-641.113,-62.012,0,0
1586465460,-54.688,-28.809,-780.273,-6.348,0,0
1586465460,-102.539,-25.391,-324.707,9.766,0,0
1586465460,-8.789,-29.297,-34.668,-28.32,0,0
1586465460,63.477,-27.832,-388.184,-47.363,0,0
1586465460,-18.066,-25.391,-429.688,11.719,0,0
1586465460,-95.215,-26.367,-120.605,67.383,0,0
1586465460,-18.066,-25.391,-86.426,43.945,0,0
1586465460,81.543,-24.902,-438.477,5.859,0,0
1586465460,25.391,-25.391,-732.91,26.367,0,0
1586465460,-82.52,-23.926,-395.996,79.59,0,0
1586465460,-45.898,-20.996,-13.184,79.59,0,0
1586465460,62.5,-25.391,-564.941,36.621,0,0
1586465460,42.48,-21.973,-847.656,38.574,0,0
1586465460,-72.754,-19.531,-206.543,85.938,0,0
1586465460,-79.59,-27.832,-13.184,106.934,0,0
1586465460,21.484,-31.738,-322.266,50.781,0,0
1586465460,52.734,-31.25,-443.848,11.719,0,0
1586465460,-44.922,-32.227,-184.57,54.688,0,0
1586465460,-107.91,-36.133,-136.719,97.656,0,0
1586465460,-9.766,-34.18,-358.398,68.848,0,0
1586465460,65.43,-32.715,-573.242,32.715,0,0
1586465460,-25.391,-33.203,-602.539,64.453,0,0
1586465460,-108.398,-28.32,-428.223,107.422,0,0
1586465460,-43.457,-25.879,-779.297,74.707,0,0
1586465460,54.688,-22.461,-766.602,13.184,0,0
1586465460,8.789,-20.02,-337.891,26.367,0,0
1586465460,-107.422,-28.32,-441.895,88.379,0,0
1586465460,-84.473,-32.715,-401.367,91.797,0,0
1586465460,28.809,-30.762,-214.844,40.527,0,0
1586465460,26.855,-29.297,-271.484,33.691,0,0
1586465460,-89.355,-30.762,-380.371,67.871,0,0
1586465460,-107.422,-28.32,-291.504,71.777,0,0
1586465460,6.348,-27.832,-320.801,25.391,0,0
1586465460,45.41,-29.297,-601.074,-8.789,0,0
1586465460,-55.176,-30.762,-643.555,21.973,0,0
1586465460,-111.328,-26.367,-310.547,68.359,0,0
1586465460,-25.879,-24.902,-78.125,31.25,0,0
1586465460,49.805,-32.227,-198.73,-24.414,0,0
1586465460,-20.996,-31.25,-727.051,15.625,0,0
1586465460,-115.234,-27.832,-773.438,69.336,0,0
1586465460,-59.57,-31.25,-104.004,44.434,0,0
1586465460,34.668,-38.086,-252.441,-15.137,0,0
1586465460,-1.465,-38.086,-476.074,1.465,0,0
1586465460,-109.863,-35.645,-91.309,77.148,0,0
1586465460,-104.004,-35.156,-38.086,80.566,0,0
1586465460,7.324,-34.668,-359.375,28.32,0,0
1586465460,12.207,-34.18,-786.133,20.508,0,0
1586465460,-98.145,-33.691,-474.121,69.824,0,0
1586465460,-115.723,-36.133,127.93,99.121,0,0
1586465460,5.371,-35.645,-101.562,63.477,0,0
1586465460,63.477,-36.133,-395.508,35.156,0,0
1586465460,-29.297,-34.668,-215.332,76.66,0,0
1586465460,-96.68,-36.621,103.516,114.746,0,0
1586465460,-8.789,-41.504,-120.605,72.266,0,0
1586465460,82.52,-38.574,-353.516,20.996,0,0
1586465460,19.043,-35.156,-193.848,54.688,0,0
1586465460,-86.914,-37.598,-158.203,112.305,0,0
1586465460,-42.969,-42.48,-544.434,98.145,0,0
1586465460,62.988,-40.527,-813.965,35.645,0,0
1586465460,41.504,-38.574,-310.059,24.902,0,0
1586465460,-60.547,-39.062,10.254,83.496,0,0
1586465460,-55.176,-37.109,-84.961,86.914,0,0
1586465460,57.617,-38.086,-174.316,26.855,0,0
1586465460,64.941,-43.457,-140.625,3.906,0,0
1586465460,-57.129,-43.457,-146.973,49.805,0,0
1586465460,-105.957,-42.48,-170.41,69.824,0,0
1586465460,-12.207,-42.48,-144.531,15.137,0,0
1586465460,47.363,-37.109,-253.418,-19.043,0,0
1586465460,-41.504,-34.18,-416.504,18.555,0,0
1586465460,-124.023,-35.645,-800.781,65.918,0,0
1586465460,-45.898,-33.691,-651.367,38.574,0,0
1586465460,60.059,-29.297,-301.27,-13.672,0,0
1586465460,7.324,-33.691,-555.176,10.254,0,0
1586465460,-96.68,-34.18,-387.207,60.059,0,0
1586465460,-53.711,-27.832,-28.32,48.34,0,0
1586465460,49.805,-28.32,-98.633,-5.859,0,0
1586465460,29.297,-32.227,-433.594,-6.348,0,0
1586465460,-75.684,-28.809,-345.215,60.547,0,0
1586465460,-82.52,-30.273,41.504,72.754,0,0
1586465460,29.297,-36.621,-3.906,17.578,0,0
1586465460,53.711,-35.645,-613.281,5.371,0,0
1586465460,-57.617,-37.109,-745.605,53.223,0,0
1586465460,-109.863,-38.574,-119.629,72.754,0,0
1586465460,-6.836,-33.691,11.719,27.344,0,0
1586465460,67.383,-30.273,-524.902,-2.93,0,0
1586465460,-19.531,-28.32,-536.621,33.691,0,0
1586465460,-104.004,-24.902,-73.73,77.637,0,0
1586465460,-36.133,-27.832,-221.68,53.711,0,0
1586465460,61.035,-33.203,-451.66,-12.695,0,0
1586465460,15.137,-35.156,-391.602,-3.418,0,0
1586465460,-95.703,-33.691,-132.324,59.57,0,0
1586465460,-72.266,-38.086,-160.645,59.57,0,0
1586465460,48.34,-38.086,-588.379,3.906,0,0
1586465460,51.27,-33.203,-637.695,-10.254,0,0
1586465460,-60.547,-31.738,-199.707,43.457,0,0
1586465460,-78.125,-30.762,-176.27,66.895,0,0
1586465460,27.832,-30.762,-626.465,23.438,0,0
1586465460,62.988,-29.297,-528.809,-20.02,0,0
1586465460,-39.062,-31.25,-180.664,1.953,0,0
1586465460,-96.191,-34.668,-243.652,30.273,0,0
1586465460,-7.812,-32.715,-323.73,-4.883,0,0
1586465460,68.848,-32.227,-229.98,-51.27,0,0
1586465460,-2.441,-36.133,-391.602,-26.367,0,0
1586465460,-97.656,-34.668,-455.566,21.484,0,0
1586465460,-43.945,-31.25,-437.012,0,0,0
1586465460,62.988,-26.855,-445.801,-52.734,0,0
1586465460,19.531,-25.879,-318.359,-55.176,0,0
1586465460,-104.492,-34.18,-348.145,-13.672,0,0
1586465460,-90.82,-37.109,-238.77,-18.555,0,0
1586465460,25.879,-31.738,-101.562,-79.59,0,0
1586465460,35.156,-28.32,-143.066,-95.703,0,0
1586465460,-83.008,-30.273,-589.355,-30.762,0,0
1586465460,-111.816,-36.621,-584.961,-1.953,0,0
1586465460,11.23,-34.18,-29.297,-59.082,0,0
1586465460,67.871,-30.762,-266.602,-99.121,0,0
1586465460,-41.016,-33.691,-496.094,-62.5,0,0
1586465460,-124.023,-36.133,-380.371,-18.555,0,0
1586465460,-41.504,-36.621,-312.988,-53.223,0,0
1586465460,56.641,-35.645,-515.137,-99.121,0,0
1586465460,-16.602,-33.691,-840.82,-70.312,0,0
1586465460,-124.512,-32.227,-427.246,-27.344,0,0
1586465460,-71.289,-34.668,33.203,-49.316,0,0
1586465460,35.156,-34.18,-309.082,-105.957,0,0
1586465460,5.371,-34.668,-444.824,-94.238,0,0
1586465460,-104.492,-36.133,-120.605,-32.227,0,0
1586465460,-94.238,-36.621,41.016,-43.457,0,0
1586465460,23.926,-37.109,-273.438,-113.77,0,0
1586465460,36.621,-35.645,-508.301,-134.277,0,0
1586465460,-78.125,-32.227,-420.898,-84.961,0,0
1586465460,-113.281,-33.691,-281.738,-66.406,0,0
1586465460,-9.277,-38.086,-570.801,-112.305,0,0
1586465460,41.016,-36.621,-912.109,-137.695,0,0
1586465460,-52.246,-36.133,-558.105,-107.422,0,0
1586465460,-116.211,-34.668,-189.453,-82.031,0,0
1586465460,-34.668,-31.738,-254.395,-109.863,0,0
1586465460,51.758,-34.668,-384.277,-150.879,0,0
1586465460,-6.348,-32.715,-229.492,-136.719,0,0
1586465460,-107.91,-31.25,-136.23,-88.867,0,0
1586465460,-66.406,-32.227,-228.516,-97.168,0,0
1586465460,41.504,-28.32,-267.578,-151.855,0,0
1586465460,21.484,-28.32,-445.312,-152.344,0,0
1586465460,-95.215,-36.621,-546.387,-88.867,0,0
1586465460,-101.562,-41.992,-706.543,-64.941,0,0
1586465460,17.578,-38.086,-556.641,-105.469,0,0
1586465460,46.875,-36.621,-238.77,-123.047,0,0
1586465460,-62.5,-36.133,-395.02,-83.008,0,0
1586465460,-107.422,-39.062,-326.172,-53.711,0,0
1586465460,-13.672,-42.48,-267.09,-101.562,0,0
1586465460,42.969,-40.527,-343.75,-141.113,0,0
1586465460,-41.016,-41.016,-518.066,-98.633,0,0
1586465460,-118.164,-37.109,-447.754,-47.363,0,0
1586465460,-51.758,-34.668,-75.684,-61.523,0,0
1586465460,40.527,-35.156,-286.133,-111.816,0,0
1586465460,-10.742,-35.156,-780.273,-103.516,0,0
1586465460,-120.605,-35.645,-725.098,-53.223,0,0
1586465460,-87.891,-33.203,-3.418,-68.848,0,0
1586465460,27.344,-36.621,-61.523,-130.371,0,0
1586465460,16.602,-34.668,-405.273,-133.789,0,0
1586465460,-95.703,-31.25,-264.648,-69.824,0,0
1586465460,-101.074,-31.738,-26.367,-38.574,0,0
1586465460,15.625,-32.715,-69.336,-82.52,0,0
1586465460,52.246,-29.297,-393.555,-103.516,0,0
1586465460,-47.852,-26.367,-464.844,-56.641,0,0
1586465460,-103.027,-32.227,-195.312,-20.996,0,0
1586465460,-5.859,-36.133,-268.066,-63.965,0,0
1586465460,68.359,-34.18,-792.48,-107.91,0,0
1586465460,-19.531,-39.062,-639.16,-66.895,0,0
1586465460,-113.281,-41.016,-24.902,-12.695,0,0
1586465460,-53.711,-39.551,-52.734,-37.109,0,0
1586465460,46.875,-44.434,-354.004,-80.078,0,0
1586465460,20.02,-43.457,-237.793,-30.273,0,0
1586465460,-94.238,-37.598,-15.137,25.879,0,0
1586465460,-114.258,-39.062,-119.629,-17.09,0,0
1586465460,-13.184,-42.969,-258.301,-80.566,0,0
1586465460,-3.418,-39.551,-197.754,-80.566,0,0
1586465460,-133.301,-38.086,-81.543,-37.109,0,0
1586465460,-167.48,-37.109,-333.008,-20.508,0,0
1586465460,-62.012,-30.762,-645.996,-81.055,0,0
1586465460,-17.09,-34.18,-450.195,-117.676,0,0
1586465460,-110.84,-36.621,-222.168,-71.777,0,0
1586465460,-184.082,-30.762,-265.137,-42.969,0,0
1586465460,-96.68,-34.668,-280.273,-65.918,0,0
1586465460,-10.742,-34.668,-238.281,-102.051,0,0
1586465460,-76.66,-31.25,-209.961,-71.777,0,0
1586465460,-171.387,-36.621,-575.684,-13.672,0,0
1586465460,-116.699,-33.203,-554.688,-31.738,0,0
1586465460,2.93,-27.832,-86.426,-81.543,0,0
1586465460,-18.066,-27.344,-277.344,-61.523,0,0
1586465460,-131.836,-27.832,-494.629,6.836,0,0
1586465460,-117.188,-27.344,-307.617,17.09,0,0
1586465460,9.766,-22.461,-46.875,-54.688,0,0
1586465460,22.949,-23.438,-312.988,-92.285,0,0
1586465460,-93.262,-29.785,-738.281,-43.945,0,0
1586465460,-125.488,-27.832,-335.449,-17.578,0,0
1586465460,-16.113,-28.32,6.836,-70.312,0,0
1586465460,42.969,-25.879,-381.836,-104.492,0,0
1586465460,-47.852,-19.531,-429.688,-66.895,0,0
1586465460,-121.094,-20.508,-49.316,-26.367,0,0
1586465460,-28.32,-24.414,52.246,-57.129,0,0
1586465460,69.824,-30.273,-370.605,-112.305,0,0
1586465460,-0.977,-30.273,-683.594,-84.473,0,0
1586465460,-108.398,-27.344,-331.055,-26.855,0,0
1586465460,-64.453,-25.879,73.242,-41.992,0,0
1586465461,52.246,-26.855,-227.051,-96.68,0,0
1586465461,29.785,-27.344,-390.137,-92.773,0,0
1586465461,-90.332,-26.367,-18.555,-40.527,0,0
1586465461,-87.402,-29.297,150.879,-31.25,0,0
1586465461,29.297,-33.691,-488.77,-68.359,0,0
1586465461,50.293,-27.344,-769.043,-78.613,0,0
1586465461,-50.781,-21.973,-104.492,-29.297,0,0
1586465461,-90.82,-25.879,78.125,-2.93,0,0
1586465461,-1.465,-26.855,-184.082,-43.945,0,0
1586465461,57.617,-24.414,-465.82,-74.219,0,0
1586465461,-33.203,-27.344,-418.945,-45.41,0,0
1586465461,-117.676,-29.785,-223.145,-4.395,0,0
1586465461,-37.598,-26.367,-511.23,-18.066,0,0
1586465461,63.477,-24.902,-466.797,-65.918,0,0
1586465461,8.301,-27.344,-8.789,-50.293,0,0
1586465461,-96.68,-26.855,-111.328,6.836,0,0
1586465461,-61.035,-26.855,-206.543,-7.324,0,0
1586465461,46.875,-22.461,15.625,-58.105,0,0
1586465461,37.598,-21.973,-41.992,-48.34,0,0
1586465461,-71.289,-26.367,-253.418,7.812,0,0
1586465461,-81.055,-23.926,-191.895,23.926,0,0
1586465461,31.25,-23.438,-225.586,-25.391,0,0
1586465461,65.43,-22.461,-376.465,-49.316,0,0
1586465461,-44.434,-25.391,-628.906,7.812,0,0
1586465461,-96.68,-27.832,-554.688,47.852,0,0
1586465461,18.555,-26.367,42.48,23.926,0,0
1586465461,100.586,-22.461,-95.215,-13.184,0,0
1586465461,-1.465,-20.02,-290.039,-12.695,0,0
1586465461,-89.355,-21.973,-39.062,16.602,0,0
1586465461,-1.465,-21.973,124.023,1.465,0,0
1586465461,106.934,-21.973,-145.508,-39.062,0,0
1586465461,58.105,-19.043,-361.328,-25.391,0,0
1586465461,-52.734,-16.602,-66.406,17.09,0,0
1586465461,-28.32,-19.531,-39.551,3.906,0,0
1586465461,78.613,-24.414,-405.273,-66.406,0,0
1586465461,71.777,-20.02,-868.164,-76.172,0,0
1586465461,-47.852,-18.066,-609.375,-13.672,0,0
1586465461,-74.707,-24.414,59.57,6.348,0,0
1586465461,38.086,-25.391,-214.355,-59.57,0,0
1586465461,76.172,-28.32,-499.512,-95.215,0,0
1586465461,-25.391,-25.879,-216.309,-34.668,0,0
1586465461,-81.543,-22.461,69.336,20.508,0,0
1586465461,12.207,-26.855,-117.188,-15.137,0,0
1586465461,91.797,-28.809,-359.863,-62.012,0,0
1586465461,17.578,-29.297,-228.027,-25.391,0,0
1586465461,-79.102,-29.785,-255.371,23.438,0,0
1586465461,-27.344,-29.785,-398.438,2.441,0,0
1586465461,80.078,-29.785,-358.887,-57.129,0,0
1586465461,50.781,-29.297,-252.93,-64.941,0,0
1586465461,-66.895,-32.227,-68.359,-10.254,0,0
1586465461,-55.664,-36.621,-470.703,9.766,0,0
1586465461,63.477,-34.18,-817.383,-29.785,0,0
1586465461,65.918,-31.25,-293.945,-46.875,0,0
1586465461,-49.805,-34.668,-140.625,7.812,0,0
1586465461,-78.613,-33.203,-203.613,38.574,0,0
1586465461,23.926,-31.25,-123.535,-15.625,0,0
1586465461,71.777,-37.109,-155.762,-53.711,0,0
1586465461,-24.414,-41.504,-329.102,-13.184,0,0
1586465461,-97.168,-36.133,-688.477,34.668,0,0
1586465461,-21.973,-34.668,-511.23,-10.742,0,0
1586465461,64.941,-32.227,-133.789,-68.848,0,0
1586465461,-4.395,-35.156,-322.754,-28.809,0,0
1586465461,-117.188,-37.598,-234.375,26.855,0,0
1586465461,-67.871,-31.738,15.137,-1.953,0,0
1586465461,53.711,-29.785,-270.02,-60.547,0,0
1586465461,20.996,-31.25,-572.754,-56.641,0,0
1586465461,-102.539,-33.203,-343.262,-5.371,0,0
1586465461,-94.238,-33.691,40.527,9.766,0,0
1586465461,21.973,-33.203,-96.191,-43.457,0,0
1586465461,29.785,-35.645,-732.91,-70.312,0,0
1586465461,-78.125,-34.18,-705.566,-20.02,0,0
1586465461,-115.234,-28.32,-20.996,11.719,0,0
1586465461,-17.09,-32.715,9.277,-46.875,0,0
1586465461,41.504,-38.574,-600.586,-94.727,0,0
1586465461,-49.805,-37.598,-629.395,-66.406,0,0
1586465461,-129.395,-33.203,-27.832,-13.672,0,0
1586465461,-49.805,-32.227,30.762,-26.855,0,0
1586465461,50.781,-31.738,-411.621,-78.125,0,0
1586465461,-4.883,-29.297,-402.832,-63.477,0,0
1586465461,-108.887,-30.273,-149.414,-5.371,0,0
1586465461,-71.777,-30.762,-288.574,-13.672,0,0
1586465461,44.922,-28.32,-624.512,-73.73,0,0
1586465461,19.531,-22.949,-584.961,-73.242,0,0
1586465461,-103.027,-20.996,-122.559,-22.461,0,0
1586465461,-100.098,-25.391,-112.793,-18.066,0,0
1586465461,15.137,-26.367,-554.199,-75.684,0,0
1586465461,44.434,-23.926,-481.934,-112.793,0,0
1586465461,-62.012,-26.367,-176.27,-73.73,0,0
1586465461,-115.234,-28.32,-200.195,-26.367,0,0
1586465461,-27.832,-28.809,-296.875,-57.129,0,0
1586465461,37.109,-36.621,-222.656,-83.496,0,0
1586465461,-42.969,-37.109,-115.723,-27.832,0,0
1586465461,-131.348,-33.691,-250.977,27.344,0,0
1586465461,-59.082,-38.086,-489.746,-9.277,0,0
1586465461,52.734,-42.48,-530.762,-72.754,0,0
1586465461,7.812,-38.574,-478.027,-47.852,0,0
1586465461,-100.586,-35.156,-695.312,17.09,0,0
1586465461,-69.824,-35.645,-732.422,2.441,0,0
1586465461,47.852,-32.227,-228.027,-56.152,0,0
1586465461,44.434,-32.715,-244.141,-67.383,0,0
1586465461,-62.012,-32.227,-336.426,-28.809,0,0
1586465461,-83.984,-33.691,-121.582,-14.16,0,0
1586465461,22.461,-35.645,-46.387,-57.617,0,0
1586465461,71.777,-33.691,-256.836,-80.078,0,0
1586465461,-34.18,-37.109,-382.812,-27.344,0,0
1586465461,-96.191,-35.645,-320.801,28.32,0,0
1586465461,-9.277,-35.156,-264.648,-1.465,0,0
1586465461,64.453,-38.574,-326.172,-41.992,0,0
1586465461,-14.16,-36.621,-764.648,-4.395,0,0
1586465461,-110.84,-33.691,-499.023,38.574,0,0
1586465461,-47.852,-34.668,-121.582,12.695,0,0
1586465461,54.199,-36.621,-533.203,-41.992,0,0
1586465461,7.812,-37.109,-696.777,-40.039,0,0
1586465461,-104.98,-40.039,-157.227,9.766,0,0
1586465461,-84.473,-40.039,90.82,4.883,0,0
1586465461,32.715,-35.645,-348.633,-57.617,0,0
1586465461,47.852,-30.762,-545.41,-74.707,0,0
1586465461,-55.664,-28.32,-382.324,-14.16,0,0
1586465461,-84.961,-30.273,-223.633,16.602,0,0
1586465461,20.508,-36.133,-544.922,-24.414,0,0
1586465461,73.242,-37.109,-832.031,-53.223,0,0
1586465461,-20.996,-35.645,-230.469,-32.227,0,0
1586465461,-97.168,-41.016,70.801,-9.766,0,0
1586465461,-16.602,-38.574,-154.297,-38.574,0,0
1586465461,81.543,-37.109,-315.918,-79.59,0,0
1586465461,-1.953,-41.504,-293.457,-72.754,0,0
1586465461,-115.234,-40.039,-150.879,-30.762,0,0
1586465461,-62.012,-42.969,-67.871,-48.828,0,0
1586465461,41.992,-43.457,-118.652,-101.562,0,0
1586465461,14.16,-44.434,-313.477,-90.82,0,0
1586465461,-105.469,-44.434,-314.941,-23.926,0,0
1586465461,-97.168,-42.969,-491.211,1.953,0,0
1586465461,26.855,-45.898,-404.297,-65.918,0,0
1586465461,49.805,-47.363,-48.828,-85.938,0,0
1586465461,-64.941,-48.828,-197.754,-20.996,0,0
1586465461,-109.375,-46.387,-170.898,8.301,0,0
1586465461,0,-44.434,5.371,-43.457,0,0
1586465461,58.594,-41.992,-91.797,-81.543,0,0
1586465461,-38.086,-40.039,-286.133,-46.387,0,0
1586465461,-120.117,-39.551,-209.961,-7.812,0,0
1586465461,-39.551,-38.086,-181.641,-39.062,0,0
1586465461,51.758,-39.062,-450.684,-90.82,0,0
1586465461,-15.137,-43.457,-807.129,-67.871,0,0
1586465461,-113.281,-39.551,-723.145,-17.09,0,0
1586465461,-70.312,-35.156,-103.516,-44.434,0,0
1586465461,41.504,-34.18,-65.43,-98.145,0,0
1586465461,21.484,-29.297,-296.875,-88.379,0,0
1586465461,-94.727,-27.832,-168.945,-35.156,0,0
1586465461,-87.402,-29.297,117.676,-20.996,0,0
1586465461,30.273,-34.18,-88.867,-73.242,0,0
1586465461,50.293,-34.18,-392.578,-86.914,0,0
1586465461,-62.988,-29.785,-167.48,-33.691,0,0
1586465461,-115.723,-29.785,51.758,-14.16,0,0
1586465461,-17.09,-32.715,-172.852,-57.129,0,0
1586465461,51.27,-34.18,-737.305,-96.68,0,0
1586465461,-30.762,-28.809,-695.312,-72.754,0,0
1586465461,-111.816,-27.832,-59.57,-23.438,0,0
1586465461,-39.551,-32.715,-54.688,-34.18,0,0
1586465461,60.547,-34.18,-333.008,-85.938,0,0
1586465461,14.16,-34.18,-239.746,-72.266,0,0
1586465461,-93.75,-32.715,-29.785,-8.301,0,0
1586465461,-67.383,-34.18,-110.84,-6.348,0,0
1586465461,48.828,-33.203,-287.598,-62.5,0,0
1586465461,39.551,-31.25,-185.547,-59.57,0,0
1586465461,-78.613,-35.156,-105.469,0.488,0,0
1586465461,-93.75,-38.086,-430.176,12.207,0,0
1586465461,19.531,-32.227,-609.863,-35.156,0,0
1586465461,59.57,-27.344,-233.887,-73.242,0,0
1586465461,-39.551,-26.855,-76.66,-27.344,0,0
1586465461,-101.562,-33.203,-327.148,18.555,0,0
1586465461,-9.766,-34.18,-461.914,-20.996,0,0
1586465461,64.453,-34.18,-312.012,-63.965,0,0
1586465461,-20.02,-36.133,-372.07,-36.133,0,0
1586465461,-117.676,-39.551,-261.719,-4.395,0,0
1586465461,-58.594,-41.504,-67.383,-30.273,0,0
1586465461,46.875,-33.691,-87.891,-67.871,0,0
1586465461,4.395,-29.297,-240.234,-54.688,0,0
1586465461,-94.727,-27.344,-415.527,5.859,0,0
1586465461,-80.078,-33.203,-261.23,0,0,0
1586465461,16.113,-38.086,-63.477,-74.707,0,0
1586465461,20.996,-38.574,-297.852,-86.914,0,0
1586465461,-95.215,-40.039,-558.105,-30.273,0,0
1586465461,-123.047,-40.527,-183.594,-11.23,0,0
1586465461,-17.09,-46.387,33.203,-68.848,0,0
1586465461,26.855,-45.898,-375,-94.727,0,0
1586465461,-69.336,-39.062,-560.547,-37.598,0,0
1586465461,-125.977,-36.621,-191.406,8.301,0,0
1586465461,-32.227,-39.551,58.105,-9.766,0,0
1586465461,49.316,-41.504,-321.777,-37.598,0,0
1586465461,-22.461,-41.016,-705.078,-1.465,0,0
1586465461,-115.723,-37.109,-416.992,56.152,0,0
1586465461,-58.594,-34.668,-78.613,56.152,0,0
1586465461,53.223,-36.133,-458.008,8.789,0,0
1586465461,7.324,-37.598,-541.992,6.348,0,0
1586465461,-121.094,-36.621,-159.668,63.477,0,0
1586465461,-112.793,-36.621,-37.109,70.312,0,0
1586465461,-1.953,-41.992,-581.543,21.484,0,0
1586465461,6.836,-38.086,-808.594,5.859,0,0
1586465461,-104.492,-33.203,-172.363,46.387,0,0
1586465461,-136.23,-35.156,-20.996,83.496,0,0
1586465461,-35.645,-36.621,-444.824,43.945,0,0
1586465461,13.184,-38.574,-728.027,-1.465,0,0
1586465461,-84.473,-41.992,-489.258,45.898,0,0
1586465461,-157.227,-41.992,-179.688,105.957,0,0
1586465461,-77.637,-36.133,-562.012,75.684,0,0
1586465461,17.09,-31.25,-637.695,19.531,0,0
1586465461,-43.945,-31.25,-184.57,45.898,0,0
1586465461,-150.391,-33.691,-190.43,111.328,0,0
1586465461,-107.91,-33.691,-194.824,94.238,0,0
1586465461,10.254,-34.18,-143.066,41.992,0,0
1586465461,-3.906,-35.645,-268.066,55.664,0,0
1586465461,-124.512,-37.598,-343.262,115.723,0,0
1586465461,-123.535,-36.133,-254.883,134.766,0,0
1586465461,-1.953,-36.621,-381.348,76.66,0,0
1586465461,21.484,-35.156,-545.41,56.152,0,0
1586465461,-82.52,-34.18,-778.32,125,0,0
1586465461,-121.582,-30.273,-754.883,166.992,0,0
1586465461,-20.508,-25.391,-179.688,126.465,0,0
1586465461,42.48,-25.391,-212.891,91.797,0,0
1586465461,-46.875,-25.879,-408.691,125,0,0
1586465461,-134.766,-28.32,-185.547,169.434,0,0
1586465461,-63.965,-28.809,42.48,139.648,0,0
1586465461,39.062,-29.785,-200.195,87.402,0,0
1586465461,-8.789,-29.785,-425.781,105.469,0,0
1586465461,-104.004,-30.762,-265.625,145.508,0,0
1586465461,-71.289,-33.203,-311.523,133.789,0,0
1586465461,24.414,-34.18,-500.977,77.148,0,0
1586465461,12.207,-28.809,-812.012,70.801,0,0
1586465461,-105.469,-20.508,-514.648,125.488,0,0
1586465461,-116.211,-20.996,54.688,121.582,0,0
1586465461,0.488,-27.832,-267.578,65.43,0,0
1586465461,36.133,-25.391,-582.52,46.875,0,0
1586465461,-69.824,-24.902,-249.512,104.004,0,0
1586465461,-124.512,-29.785,42.48,143.066,0,0
1586465461,-20.996,-29.785,-193.848,108.887,0,0
1586465461,55.176,-28.32,-455.566,75.684,0,0
1586465461,-46.875,-33.691,-255.859,93.262,0,0
1586465461,-152.344,-41.504,-206.055,126.953,0,0
1586465461,-86.914,-41.016,-504.395,105.469,0,0
1586465461,26.367,-32.715,-536.133,62.012,0,0
1586465461,-8.789,-33.203,-333.008,85.938,0,0
1586465461,-128.418,-37.598,-55.176,139.16,0,0
1586465461,-102.051,-36.133,-396.973,152.344,0,0
1586465461,22.949,-29.297,-778.809,95.215,0,0
1586465461,22.949,-28.32,-299.805,56.152,0,0
1586465461,-86.426,-33.691,-194.336,105.957,0,0
1586465461,-103.027,-33.691,-244.141,124.512,0,0
1586465461,17.578,-29.297,-150.879,56.641,0,0
1586465461,69.336,-30.762,-151.367,23.438,0,0
1586465461,-39.551,-35.645,-293.945,67.383,0,0
1586465461,-104.492,-32.715,-690.918,114.258,0,0
