timestamps,TP9,AF7,AF8,TP10,Right AUX,Marker
1586465065,-165.527,-41.504,211.426,-51.758,0,0
1586465065,-155.273,-41.504,194.336,-12.207,0,0
1586465065,-167.969,-43.457,202.148,-11.719,0,0
1586465065,-183.594,-44.434,183.594,-53.711,0,0
1586465065,-176.758,-49.316,187.012,-81.055,0,0
1586465065,-180.664,-52.246,200.684,-38.574,0,0
1586465065,-180.176,-49.316,68.359,15.625,0,0
1586465065,-166.992,-46.875,-27.832,-18.555,0,0
1586465065,-160.645,-41.504,177.734,-80.078,0,0
1586465065,-164.551,-41.504,249.023,-49.805,0,0
1586465065,-159.18,-42.48,246.582,-7.324,0,0
1586465065,-161.621,-43.457,188.477,-29.297,0,0
1586465065,-176.27,-41.992,185.059,-65.918,0,0
1586465065,-160.645,-41.504,214.355,-53.223,0,0
1586465065,-156.25,-45.41,209.473,-6.348,0,0
1586465065,-162.109,-45.898,223.633,8.301,0,0
1586465065,-146.484,-42.969,161.621,-29.785,0,0
1586465065,-140.137,-41.992,61.523,-50.781,0,0
1586465065,-158.691,-40.527,85.449,-1.953,0,0
1586465065,-159.18,-40.527,132.324,23.926,0,0
1586465065,-145.02,-37.598,208.008,-32.715,0,0
1586465065,-144.043,-35.156,164.062,-76.172,0,0
1586465065,-142.09,-41.016,-139.16,-35.156,0,0
1586465065,-143.555,-38.086,103.516,4.883,0,0
1586465065,-143.555,-35.156,251.953,-11.719,0,0
1586465065,-135.254,-37.109,198.242,-38.086,0,0
1586465065,-139.16,-39.062,200.684,-32.715,0,0
1586465065,-129.883,-39.551,147.949,0.977,0,0
1586465065,-119.629,-37.598,199.707,-0.488,0,0
1586465065,-126.465,-41.504,110.352,-35.156,0,0
1586465065,-125,-40.039,124.512,-35.645,0,0
1586465065,-125,-33.203,191.406,-0.488,0,0
1586465065,-130.859,-38.086,-62.988,24.902,0,0
1586465065,-124.023,-34.18,32.715,-0.977,0,0
1586465065,-122.07,-24.902,271.973,-40.039,0,0
1586465065,-136.719,-38.574,271.484,-16.602,0,0
1586465065,-134.277,-46.387,236.816,0,0,0
1586465065,-119.629,-40.527,106.934,-24.414,0,0
1586465065,-120.605,-35.645,186.523,-36.621,0,0
1586465065,-111.328,-30.273,253.906,-9.766,0,0
1586465065,-118.164,-33.691,202.637,33.203,0,0
1586465065,-125.977,-33.203,141.602,11.23,0,0
1586465065,-141.113,-36.621,35.156,-43.945,0,0
1586465065,-143.066,-38.086,109.375,-25.391,0,0
1586465065,-136.23,-30.762,250.488,14.648,0,0
1586465065,-144.043,-29.297,251.953,15.137,0,0
1586465065,-138.672,-32.227,204.59,-32.227,0,0
1586465065,-134.277,-35.645,107.91,-37.598,0,0
1586465065,-130.859,-41.504,128.906,-2.93,0,0
1586465065,-123.047,-41.016,249.512,0.488,0,0
1586465065,-142.578,-40.039,249.512,-40.527,0,0
1586465065,-145.996,-39.551,218.262,-62.012,0,0
1586465065,-133.789,-35.645,188.965,-22.461,0,0
1586465065,-138.672,-38.086,135.742,12.695,0,0
1586465065,-143.066,-39.062,142.09,-21.484,0,0
1586465065,-153.809,-32.227,190.918,-60.547,0,0
1586465065,-160.156,-32.715,260.254,-26.855,0,0
1586465065,-146.484,-36.621,129.883,13.184,0,0
1586465065,-125,-40.527,-119.629,-5.371,0,0
1586465065,-142.578,-36.133,119.141,-62.5,0,0
1586465065,-158.691,-32.715,235.84,-59.082,0,0
1586465065,-141.602,-34.668,213.379,-6.836,0,0
1586465065,-141.602,-36.621,205.566,-9.277,0,0
1586465065,-148.926,-40.527,169.434,-35.156,0,0
1586465065,-144.043,-42.969,169.922,-54.688,0,0
1586465065,-143.555,-47.363,106.934,-23.926,0,0
1586465065,-153.32,-44.922,101.074,10.254,0,0
1586465065,-141.113,-40.527,80.078,-34.18,0,0
1586465065,-128.418,-47.852,-111.816,-45.41,0,0
1586465065,-133.789,-44.434,111.328,-1.465,0,0
1586465065,-126.953,-40.039,254.883,21.973,0,0
1586465065,-120.605,-41.504,224.609,-9.277,0,0
1586465065,-120.605,-40.527,230.957,-24.414,0,0
1586465065,-124.512,-47.852,86.426,-13.184,0,0
1586465065,-128.418,-50.781,188.965,2.93,0,0
1586465065,-123.535,-46.875,253.418,-17.578,0,0
1586465065,-108.398,-41.992,195.312,-61.523,0,0
1586465065,-120.605,-43.457,113.77,-37.598,0,0
1586465065,-132.324,-49.805,-97.168,16.602,0,0
1586465065,-135.254,-46.875,2.93,16.113,0,0
1586465065,-120.117,-42.969,198.242,-51.758,0,0
1586465065,-103.027,-43.457,185.059,-54.199,0,0
1586465065,-105.469,-40.527,208.008,1.465,0,0
1586465065,-106.934,-41.016,160.645,9.766,0,0
1586465065,-99.121,-37.598,178.711,-40.039,0,0
1586465065,-95.703,-33.203,181.152,-67.383,0,0
1586465065,-116.211,-32.227,217.773,-29.785,0,0
1586465065,-121.094,-32.715,210.938,-3.418,0,0
1586465065,-110.84,-36.621,40.039,-37.598,0,0
1586465065,-104.492,-38.574,46.875,-60.059,0,0
1586465065,-89.844,-30.762,101.074,-26.367,0,0
1586465065,-104.004,-25.879,125.488,5.859,0,0
1586465065,-109.375,-28.32,235.352,-22.461,0,0
1586465065,-89.355,-33.691,47.852,-56.152,0,0
1586465065,-91.309,-32.715,-135.254,-39.062,0,0
1586465065,-105.469,-29.785,139.16,10.254,0,0
1586465065,-95.703,-34.668,198.73,10.742,0,0
1586465065,-83.984,-33.203,166.016,-33.691,0,0
1586465065,-83.984,-34.18,114.746,-41.504,0,0
1586465065,-89.844,-35.156,159.18,-10.742,0,0
1586465065,-92.773,-32.715,231.445,6.348,0,0
1586465065,-95.215,-38.574,106.934,-27.344,0,0
1586465065,-96.191,-42.48,73.73,-59.082,0,0
1586465065,-103.516,-45.41,104.98,-16.602,0,0
1586465065,-111.816,-49.805,-110.352,25.879,0,0
1586465065,-114.746,-40.527,84.961,-19.531,0,0
1586465065,-112.793,-38.086,205.078,-56.152,0,0
1586465065,-97.168,-39.551,168.457,-33.203,0,0
1586465065,-95.215,-37.598,168.457,7.324,0,0
1586465065,-99.121,-41.016,117.188,16.113,0,0
1586465065,-90.82,-39.551,166.992,-37.109,0,0
1586465065,-79.102,-33.203,158.691,-37.598,0,0
1586465065,-73.73,-34.18,186.523,22.461,0,0
1586465065,-81.543,-38.086,78.125,33.691,0,0
1586465065,-97.168,-41.504,-88.867,0.488,0,0
1586465065,-95.215,-40.527,68.359,-24.902,0,0
1586465065,-85.449,-41.504,157.227,9.766,0,0
1586465065,-94.238,-45.41,175.781,43.945,0,0
1586465065,-95.215,-46.387,134.277,-2.93,0,0
1586465065,-82.52,-43.945,-141.113,-24.414,0,0
1586465065,-80.078,-37.598,29.297,26.855,0,0
1586465065,-87.891,-35.156,213.379,43.945,0,0
1586465065,-93.262,-37.109,138.672,7.324,0,0
1586465065,-80.078,-39.551,135.254,-26.855,0,0
1586465065,-71.777,-41.016,-35.156,-6.348,0,0
1586465065,-88.379,-40.527,0.488,29.785,0,0
1586465065,-92.773,-37.109,153.32,24.902,0,0
1586465065,-86.914,-35.645,127.93,-22.461,0,0
1586465065,-93.75,-41.016,150.391,-36.133,0,0
1586465065,-83.496,-41.992,17.09,20.996,0,0
1586465065,-92.773,-34.668,-36.133,42.48,0,0
1586465065,-98.145,-32.227,146.973,-10.742,0,0
1586465065,-98.145,-31.738,165.527,-43.457,0,0
1586465065,-91.309,-34.668,166.992,-6.836,0,0
1586465065,-86.914,-41.016,113.281,18.555,0,0
1586465065,-88.379,-41.016,124.023,-0.977,0,0
1586465065,-82.031,-42.969,142.578,-36.133,0,0
1586465065,-93.262,-42.969,94.238,-6.836,0,0
1586465065,-102.051,-39.551,125,30.273,0,0
1586465065,-94.238,-41.992,37.598,14.16,0,0
1586465065,-97.168,-40.039,-211.914,-20.02,0,0
1586465065,-102.051,-34.668,85.449,-29.785,0,0
1586465065,-83.496,-33.691,261.23,25.879,0,0
1586465065,-71.289,-34.668,190.43,37.109,0,0
1586465065,-75.195,-33.203,185.059,-13.672,0,0
1586465065,-90.82,-36.133,198.73,-34.18,0,0
1586465065,-90.332,-36.621,239.746,20.508,0,0
1586465065,-82.031,-29.785,204.102,44.922,0,0
1586465065,-72.266,-28.809,178.223,-3.906,0,0
1586465065,-85.449,-34.668,19.531,-12.207,0,0
1586465065,-96.68,-37.598,-222.656,18.066,0,0
1586465065,-94.238,-25.879,85.938,29.297,0,0
1586465065,-92.285,-21.973,234.863,-4.395,0,0
1586465065,-77.637,-27.832,141.113,-41.016,0,0
1586465065,-66.406,-31.25,104.98,-5.371,0,0
1586465065,-79.102,-31.738,74.219,28.809,0,0
1586465065,-88.867,-28.809,211.914,40.039,0,0
1586465065,-91.309,-32.715,209.961,-1.953,0,0
1586465065,-86.914,-36.133,197.754,-36.621,0,0
1586465065,-79.59,-31.738,203.613,22.949,0,0
1586465065,-73.242,-29.785,86.426,34.668,0,0
1586465065,-79.59,-31.25,85.449,-20.996,0,0
1586465065,-97.168,-29.297,88.379,-44.434,0,0
1586465065,-80.078,-26.855,140.137,-2.441,0,0
1586465065,-61.523,-32.227,239.746,23.438,0,0
1586465065,-66.895,-33.691,10.742,-1.953,0,0
1586465065,-79.102,-30.762,-0.488,-32.227,0,0
1586465065,-82.52,-32.715,220.215,-16.113,0,0
1586465065,-68.848,-31.738,251.465,28.32,0,0
1586465065,-75.684,-33.203,186.035,0.977,0,0
1586465065,-91.309,-40.527,128.906,-56.152,0,0
1586465065,-78.125,-37.109,205.566,-30.273,0,0
1586465065,-58.105,-36.133,217.773,17.578,0,0
1586465065,-69.336,-41.504,103.027,-0.977,0,0
1586465065,-91.309,-39.551,125,-42.48,0,0
1586465065,-81.055,-41.016,81.055,-36.133,0,0
1586465065,-68.359,-41.016,41.992,0.977,0,0
1586465065,-63.477,-34.668,233.887,10.742,0,0
1586465065,-64.453,-31.25,231.445,-16.602,0,0
1586465065,-71.289,-36.133,177.734,-37.109,0,0
1586465065,-71.777,-37.109,149.902,-1.465,0,0
1586465065,-69.336,-31.738,211.914,29.297,0,0
1586465065,-75.684,-34.18,202.148,-3.906,0,0
1586465065,-77.637,-35.156,183.594,-34.668,0,0
1586465065,-72.266,-26.855,164.551,5.859,0,0
1586465065,-66.895,-25.391,135.742,33.691,0,0
1586465065,-66.406,-31.738,127.441,12.695,0,0
1586465065,-69.824,-28.809,89.844,-21.484,0,0
1586465065,-75.684,-30.762,156.25,-13.184,0,0
1586465065,-81.055,-29.297,200.684,27.832,0,0
1586465065,-71.289,-28.32,121.582,1.465,0,0
1586465065,-71.777,-32.227,47.363,-37.109,0,0
1586465065,-70.312,-32.715,195.801,-32.227,0,0
1586465065,-64.453,-36.133,218.262,10.742,0,0
1586465065,-77.637,-32.227,230.957,20.996,0,0
1586465065,-77.148,-28.32,187.5,-21.973,0,0
1586465065,-75.195,-27.832,-135.254,-20.508,0,0
1586465065,-71.289,-26.855,13.672,9.766,0,0
1586465065,-63.965,-29.297,172.363,22.949,0,0
1586465065,-60.547,-27.344,170.898,-1.465,0,0
1586465065,-73.73,-28.32,82.031,-55.664,0,0
1586465065,-72.266,-37.598,-185.547,-24.414,0,0
1586465065,-73.242,-30.762,102.539,18.066,0,0
1586465065,-95.703,-26.367,252.93,-24.902,0,0
1586465065,-90.332,-30.762,177.734,-61.523,0,0
1586465065,-68.359,-30.273,183.594,-44.922,0,0
1586465065,-88.867,-34.668,85.449,7.324,0,0
1586465065,-101.074,-36.621,194.336,-2.93,0,0
1586465065,-88.867,-33.691,153.809,-61.523,0,0
1586465065,-77.148,-31.738,36.621,-60.059,0,0
1586465065,-71.777,-28.809,123.535,-15.625,0,0
1586465065,-76.172,-34.668,32.227,6.836,0,0
1586465065,-82.031,-41.992,-8.789,-21.973,0,0
1586465065,-90.82,-37.109,205.078,-53.711,0,0
1586465065,-85.449,-36.621,195.801,-22.461,0,0
1586465065,-79.102,-40.039,142.578,6.348,0,0
1586465065,-84.473,-33.691,124.512,-29.297,0,0
1586465065,-90.332,-28.809,163.574,-34.668,0,0
1586465065,-81.055,-30.273,190.918,-19.043,0,0
1586465065,-65.43,-34.18,210.449,3.906,0,0
1586465065,-72.754,-31.738,241.699,-4.883,0,0
1586465065,-79.102,-32.227,106.445,-51.758,0,0
1586465065,-77.637,-32.715,97.656,-21.973,0,0
1586465065,-78.613,-31.25,211.426,8.301,0,0
1586465065,-93.262,-35.156,198.73,-2.441,0,0
1586465065,-91.797,-37.598,213.379,-37.109,0,0
1586465065,-89.355,-29.785,62.5,-45.41,0,0
1586465065,-85.938,-30.762,-145.02,-6.836,0,0
1586465065,-86.426,-32.227,125.488,7.324,0,0
1586465065,-95.215,-34.18,156.25,-31.25,0,0
1586465065,-90.332,-34.668,63.965,-48.34,0,0
1586465065,-87.402,-33.203,159.18,-15.137,0,0
1586465065,-94.238,-33.691,128.906,15.137,0,0
1586465065,-100.586,-35.645,76.66,-6.836,0,0
1586465065,-119.141,-39.551,42.48,-37.598,0,0
1586465065,-132.324,-31.738,97.168,-18.555,0,0
1586465065,-114.258,-27.832,185.059,14.648,0,0
1586465065,-92.285,-32.227,-90.332,5.859,0,0
1586465065,-98.145,-30.762,78.613,-27.344,0,0
1586465065,-109.863,-29.297,249.512,-41.504,0,0
1586465065,-102.051,-32.715,210.938,-6.836,0,0
1586465065,-80.566,-31.25,178.711,15.137,0,0
1586465065,-95.703,-33.203,83.984,-20.996,0,0
1586465066,-115.234,-37.109,202.148,-55.664,0,0
1586465066,-118.164,-33.203,179.688,-14.648,0,0
1586465066,-115.234,-31.25,131.836,20.996,0,0
1586465066,-100.586,-33.691,93.262,-23.926,0,0
1586465066,-102.051,-39.062,-46.875,-38.086,0,0
1586465066,-100.098,-36.133,158.691,-16.602,0,0
1586465066,-89.844,-35.645,241.699,2.441,0,0
1586465066,-90.82,-39.551,181.152,-19.531,0,0
1586465066,-85.938,-39.062,165.527,-55.176,0,0
1586465066,-79.102,-41.992,-0.977,-32.227,0,0
1586465066,-85.449,-37.598,110.84,8.789,0,0
1586465066,-90.82,-30.762,215.332,1.465,0,0
1586465066,-87.891,-33.691,188.965,-41.016,0,0
1586465066,-84.961,-36.621,147.461,-27.832,0,0
1586465066,-97.656,-36.621,82.52,9.766,0,0
1586465066,-108.887,-35.645,124.512,17.09,0,0
1586465066,-85.449,-33.691,124.023,-24.414,0,0
1586465066,-77.637,-32.715,87.402,-41.992,0,0
1586465066,-87.402,-33.203,225.586,-2.441,0,0
1586465066,-89.844,-37.109,80.078,30.273,0,0
1586465066,-90.82,-39.062,-119.141,-5.859,0,0
1586465066,-81.055,-34.18,129.395,-48.34,0,0
1586465066,-75.195,-33.691,201.172,-11.23,0,0
1586465066,-93.262,-34.18,183.594,20.508,0,0
1586465066,-109.375,-37.109,150.391,-13.672,0,0
1586465066,-89.844,-41.992,121.094,-46.387,0,0
1586465066,-81.055,-41.992,70.801,-19.531,0,0
1586465066,-81.543,-40.039,112.793,12.695,0,0
1586465066,-66.406,-37.109,249.512,-8.789,0,0
1586465066,-61.523,-38.086,122.559,-43.457,0,0
1586465066,-74.707,-42.48,-162.598,-43.945,0,0
1586465066,-75.195,-39.062,92.773,-15.625,0,0
1586465066,-69.824,-37.109,181.152,-3.906,0,0
1586465066,-90.332,-38.574,168.457,-35.156,0,0
1586465066,-83.984,-38.574,174.805,-50.781,0,0
1586465066,-65.918,-37.598,181.152,-24.902,0,0
1586465066,-83.008,-28.32,238.281,2.441,0,0
1586465066,-85.449,-29.785,156.25,-28.32,0,0
1586465066,-63.965,-31.738,99.609,-57.129,0,0
1586465066,-58.594,-26.855,55.176,-39.062,0,0
1586465066,-77.148,-32.227,-95.215,0,0,0
1586465066,-73.73,-32.715,101.562,-8.301,0,0
1586465066,-73.242,-32.227,228.516,-54.688,0,0
1586465066,-65.43,-30.273,228.027,-40.527,0,0
1586465066,-62.012,-27.832,231.934,5.859,0,0
1586465066,-50.781,-30.273,-10.742,5.371,0,0
1586465066,-43.457,-24.902,122.559,-36.133,0,0
1586465066,-55.176,-25.879,168.945,-43.457,0,0
1586465066,-55.176,-31.25,189.453,11.23,0,0
1586465066,-59.082,-28.809,261.23,33.691,0,0
1586465066,-53.223,-32.227,50.293,-15.625,0,0
1586465066,-48.34,-28.809,88.867,-36.133,0,0
1586465066,-54.199,-24.414,235.84,-2.93,0,0
1586465066,-62.988,-28.32,236.328,23.438,0,0
1586465066,-52.246,-26.367,251.465,20.02,0,0
1586465066,-36.621,-27.344,161.133,-16.602,0,0
1586465066,-49.316,-27.344,213.867,-12.207,0,0
1586465066,-47.852,-23.438,288.574,29.297,0,0
1586465066,-47.852,-24.902,254.883,13.184,0,0
1586465066,-51.758,-28.32,224.121,-19.531,0,0
1586465066,-27.832,-29.785,162.598,-22.461,0,0
1586465066,-28.32,-29.297,201.172,5.859,0,0
1586465066,-50.293,-26.855,179.688,13.184,0,0
1586465066,-46.875,-28.32,118.652,-30.273,0,0
1586465066,-31.25,-32.227,168.457,-58.105,0,0
1586465066,-53.223,-32.227,130.859,-7.812,0,0
1586465066,-51.758,-27.344,32.715,50.293,0,0
1586465066,-29.785,-20.996,231.445,-2.93,0,0
1586465066,-29.785,-20.02,269.531,-31.738,0,0
1586465066,-37.598,-21.973,222.168,10.742,0,0
1586465066,-45.898,-23.438,218.262,21.973,0,0
1586465066,-56.641,-22.461,215.332,-3.906,0,0
1586465066,-53.223,-18.066,204.102,-43.945,0,0
1586465066,-36.621,-15.137,242.676,-16.113,0,0
1586465066,-46.875,-14.16,254.395,35.645,0,0
1586465066,-56.152,-15.137,143.066,17.09,0,0
1586465066,-51.27,-19.043,-17.09,-22.949,0,0
1586465066,-57.129,-17.578,150.879,-29.297,0,0
1586465066,-50.781,-14.648,264.16,8.789,0,0
1586465066,-57.617,-15.625,305.176,11.719,0,0
1586465066,-62.5,-16.113,227.539,-14.648,0,0
1586465066,-73.73,-14.16,-4.395,-41.504,0,0
1586465066,-79.59,-12.207,218.75,-5.859,0,0
1586465066,-72.754,-14.648,338.379,43.457,0,0
1586465066,-72.266,-14.16,278.32,-11.23,0,0
1586465066,-65.43,-12.695,187.012,-45.41,0,0
1586465066,-59.082,-9.277,82.52,-13.672,0,0
1586465066,-49.805,-10.254,167.48,20.508,0,0
1586465066,-65.918,-10.742,238.281,9.277,0,0
1586465066,-67.871,-8.789,276.855,-28.809,0,0
1586465066,-55.176,-14.16,242.188,-19.531,0,0
1586465066,-66.895,-20.996,95.215,23.438,0,0
1586465066,-70.801,-13.184,166.992,26.855,0,0
1586465066,-70.312,-4.883,232.91,-18.555,0,0
1586465066,-80.566,-12.695,274.414,-39.551,0,0
1586465066,-78.613,-19.043,304.688,13.672,0,0
1586465066,-64.941,-17.578,221.68,46.875,0,0
1586465066,-61.523,-15.625,240.723,-5.371,0,0
1586465066,-66.895,-19.043,185.547,-38.086,0,0
1586465066,-81.543,-22.461,176.758,-12.207,0,0
1586465066,-92.773,-19.043,308.594,4.395,0,0
1586465066,-86.426,-20.02,146.973,-18.066,0,0
1586465066,-83.496,-17.09,22.949,-42.969,0,0
1586465066,-71.289,-12.207,269.043,-25.391,0,0
1586465066,-72.266,-15.625,300.781,6.836,0,0
1586465066,-73.73,-19.043,223.633,-4.883,0,0
1586465066,-64.941,-21.484,164.551,-40.527,0,0
1586465066,-77.148,-20.02,185.059,-40.527,0,0
1586465066,-80.078,-14.648,226.074,6.348,0,0
1586465066,-70.312,-19.531,233.398,-7.812,0,0
1586465066,-84.961,-23.438,188.477,-53.223,0,0
1586465066,-91.797,-24.902,78.613,-54.199,0,0
1586465066,-106.934,-25.391,-147.461,-6.348,0,0
1586465066,-104.98,-14.648,158.691,14.648,0,0
1586465066,-94.238,-12.695,292.48,-44.922,0,0
1586465066,-86.426,-16.113,185.059,-73.73,0,0
1586465066,-82.52,-14.16,229.004,-39.551,0,0
1586465066,-82.031,-18.066,226.074,-12.207,0,0
1586465066,-86.914,-19.531,230.957,-33.203,0,0
1586465066,-79.59,-23.926,228.027,-63.477,0,0
1586465066,-75.195,-23.926,252.441,-50.781,0,0
1586465066,-83.496,-25.391,253.906,-10.254,0,0
1586465066,-87.891,-29.785,94.238,-21.973,0,0
1586465066,-102.539,-29.297,100.586,-65.43,0,0
1586465066,-102.051,-31.738,181.641,-61.523,0,0
1586465066,-83.984,-30.273,262.695,-19.043,0,0
1586465066,-81.055,-26.855,236.816,-20.508,0,0
1586465066,-85.938,-29.297,-140.137,-61.035,0,0
1586465066,-85.938,-27.832,66.406,-69.824,0,0
1586465066,-102.051,-24.902,292.48,-32.715,0,0
1586465066,-106.445,-30.762,227.051,-12.695,0,0
1586465066,-106.445,-35.156,188.965,-39.062,0,0
1586465066,-93.262,-34.18,50.781,-53.711,0,0
1586465066,-72.754,-28.809,149.902,-35.156,0,0
1586465066,-60.059,-31.25,179.688,-7.812,0,0
1586465066,-66.406,-34.668,117.676,-23.438,0,0
1586465066,-78.125,-34.668,142.09,-65.43,0,0
1586465066,-79.102,-35.156,37.598,-31.25,0,0
1586465066,-77.148,-35.156,20.02,9.766,0,0
1586465066,-94.727,-36.621,218.75,-29.785,0,0
1586465066,-102.539,-38.086,233.887,-75.684,0,0
1586465066,-86.426,-38.574,208.984,-66.406,0,0
1586465066,-87.402,-41.504,168.457,-26.367,0,0
1586465066,-84.473,-37.598,194.336,-16.113,0,0
1586465066,-87.891,-35.156,210.449,-63.965,0,0
1586465066,-90.82,-44.434,208.496,-57.129,0,0
1586465066,-100.098,-45.898,204.102,-11.719,0,0
1586465066,-104.492,-36.621,73.242,-7.324,0,0
1586465066,-100.098,-31.25,-45.41,-23.926,0,0
1586465066,-115.234,-30.762,195.801,-61.523,0,0
1586465066,-98.145,-31.25,255.371,-39.062,0,0
1586465066,-100.586,-35.156,261.23,-10.254,0,0
1586465066,-119.141,-38.086,210.938,-43.457,0,0
1586465066,-97.656,-36.621,145.508,-67.871,0,0
1586465066,-94.238,-33.203,230.469,-31.738,0,0
1586465066,-104.98,-33.203,270.02,9.277,0,0
1586465066,-104.004,-32.227,246.582,-3.418,0,0
1586465066,-93.75,-26.855,178.223,-45.41,0,0
1586465066,-84.473,-29.297,149.902,-40.527,0,0
1586465066,-86.914,-31.25,181.641,-1.465,0,0
1586465066,-94.727,-25.391,180.176,7.324,0,0
1586465066,-94.238,-25.879,241.699,-33.203,0,0
1586465066,-97.656,-31.25,206.055,-56.641,0,0
1586465066,-85.449,-35.645,-51.27,-6.836,0,0
1586465066,-86.426,-31.25,151.367,22.461,0,0
1586465066,-104.004,-32.227,285.645,-14.648,0,0
1586465066,-91.309,-31.738,231.445,-48.34,0,0
1586465066,-97.168,-31.738,223.633,-16.602,0,0
1586465066,-107.91,-41.016,115.234,37.598,0,0
1586465066,-96.68,-38.574,206.055,0,0,0
1586465066,-96.191,-34.668,123.535,-58.594,0,0
1586465066,-106.934,-33.691,114.258,-36.133,0,0
1586465066,-95.703,-31.738,211.426,10.742,0,0
1586465066,-97.656,-32.715,0.977,18.066,0,0
1586465066,-103.027,-36.133,98.633,-39.551,0,0
1586465066,-89.844,-35.156,243.164,-63.477,0,0
1586465066,-98.633,-34.668,216.797,-24.414,0,0
1586465066,-115.723,-38.086,211.914,16.113,0,0
1586465066,-116.211,-40.527,68.359,-12.207,0,0
1586465066,-103.516,-34.668,116.211,-51.758,0,0
1586465066,-98.145,-33.691,214.844,-25.391,0,0
1586465066,-83.496,-33.691,204.102,-1.953,0,0
1586465066,-83.984,-33.203,111.328,-9.277,0,0
1586465066,-93.262,-32.227,63.965,-33.203,0,0
1586465066,-92.285,-32.227,106.445,-47.852,0,0
1586465066,-98.633,-33.691,137.207,-5.371,0,0
1586465066,-102.539,-36.621,174.316,-22.949,0,0
1586465066,-94.727,-37.598,203.613,-67.383,0,0
1586465066,-87.891,-38.086,106.445,-43.945,0,0
1586465066,-101.074,-33.691,150.391,0.977,0,0
1586465066,-95.215,-28.32,220.215,0,0,0
1586465066,-78.613,-31.738,164.062,-39.551,0,0
1586465066,-71.289,-31.25,150.879,-52.246,0,0
1586465066,-79.59,-26.367,122.559,-0.488,0,0
1586465066,-75.684,-31.738,115.723,14.16,0,0
1586465066,-88.379,-28.809,168.945,-31.25,0,0
1586465066,-95.215,-31.738,179.688,-61.523,0,0
1586465066,-71.777,-38.574,219.238,-15.625,0,0
1586465066,-71.777,-35.156,155.273,16.113,0,0
1586465066,-84.473,-40.039,-166.992,-15.625,0,0
1586465066,-82.52,-35.156,71.289,-56.641,0,0
1586465066,-80.566,-26.855,235.352,-28.32,0,0
1586465066,-57.617,-26.367,192.871,41.016,0,0
1586465066,-46.875,-32.227,190.43,6.836,0,0
1586465066,-59.082,-38.086,202.637,-68.848,0,0
1586465066,-83.008,-37.598,231.934,-47.363,0,0
1586465066,-94.238,-39.551,172.852,2.93,0,0
1586465066,-83.008,-38.574,202.148,-1.953,0,0
1586465066,-61.523,-34.18,131.348,-39.062,0,0
1586465066,-71.777,-37.109,-100.586,-41.504,0,0
1586465066,-76.66,-33.203,126.953,-1.465,0,0
1586465066,-83.008,-33.691,302.246,17.578,0,0
1586465066,-86.914,-38.574,239.258,-11.719,0,0
1586465066,-66.406,-36.621,164.551,-37.109,0,0
1586465066,-62.5,-34.18,-4.395,1.953,0,0
1586465066,-74.219,-28.809,213.379,44.922,0,0
1586465066,-74.707,-31.738,291.992,-2.441,0,0
1586465066,-69.824,-38.086,192.383,-27.344,0,0
1586465066,-80.078,-34.18,139.648,3.418,0,0
1586465066,-67.871,-34.18,-46.875,28.32,0,0
1586465066,-71.777,-32.227,12.207,15.625,0,0
1586465066,-72.266,-28.809,196.289,-34.668,0,0
1586465066,-49.805,-30.762,192.871,-21.973,0,0
1586465066,-64.941,-30.762,184.57,17.09,0,0
1586465066,-60.059,-28.809,129.883,13.184,0,0
1586465066,-73.242,-30.273,180.176,-19.531,0,0
1586465066,-68.359,-32.715,217.773,-17.09,0,0
1586465066,-46.387,-36.621,206.543,14.648,0,0
1586465066,-88.379,-35.645,181.641,5.371,0,0
1586465066,-78.613,-33.691,96.191,-19.531,0,0
1586465066,-41.016,-30.273,74.219,-28.809,0,0
1586465066,-73.242,-31.25,107.422,0,0,0
1586465066,-75.195,-33.203,136.719,43.945,0,0
1586465066,-56.641,-35.156,224.609,32.227,0,0
1586465066,-64.941,-39.062,107.91,-22.461,0,0
1586465066,-82.52,-36.133,-85.449,-20.996,0,0
1586465066,-90.332,-30.762,178.711,23.926,0,0
1586465066,-90.82,-33.203,265.137,21.484,0,0
1586465066,-84.473,-35.156,160.156,-38.086,0,0
1586465066,-79.59,-36.621,151.367,-49.316,0,0
1586465066,-75.684,-35.645,227.539,-0.488,0,0
1586465066,-91.797,-33.691,255.859,22.461,0,0
1586465066,-87.402,-33.691,162.109,-14.16,0,0
1586465066,-71.777,-29.785,136.23,-48.34,0,0
1586465066,-72.754,-24.414,119.629,2.93,0,0
1586465066,-58.105,-28.809,-118.164,51.758,0,0
1586465066,-59.57,-26.855,83.496,-11.23,0,0
1586465066,-63.965,-27.344,235.352,-48.828,0,0
1586465066,-59.57,-27.832,202.637,-8.789,0,0
1586465066,-58.594,-28.809,200.195,27.832,0,0
1586465066,-54.199,-35.156,135.742,14.16,0,0
1586465066,-39.062,-34.18,177.734,-27.344,0,0
1586465066,-70.312,-31.25,211.426,-20.02,0,0
1586465066,-96.191,-25.879,230.469,3.418,0,0
1586465066,-83.008,-29.785,107.91,1.465,0,0
1586465066,-82.031,-39.551,-39.062,-34.18,0,0
1586465067,-63.477,-35.645,86.914,-33.691,0,0
1586465067,-68.848,-27.344,224.609,12.207,0,0
1586465067,-79.59,-23.926,218.75,28.809,0,0
1586465067,-64.453,-29.785,146.973,-1.953,0,0
1586465067,-56.641,-34.668,-39.062,-28.32,0,0
1586465067,-64.941,-27.344,134.277,-3.906,0,0
1586465067,-55.664,-22.461,272.949,27.344,0,0
1586465067,-46.387,-27.832,177.246,5.371,0,0
1586465067,-56.152,-30.762,174.805,-34.18,0,0
1586465067,-53.711,-30.273,92.773,-12.207,0,0
1586465067,-60.547,-35.645,78.613,27.344,0,0
1586465067,-64.941,-32.715,148.926,15.625,0,0
1586465067,-81.543,-27.832,204.59,-32.715,0,0
1586465067,-83.984,-32.715,260.254,-38.574,0,0
1586465067,-71.289,-41.504,112.793,13.184,0,0
1586465067,-77.637,-37.598,14.648,13.184,0,0
1586465067,-77.148,-25.391,206.543,-39.062,0,0
1586465067,-65.918,-29.297,206.055,-40.039,0,0
1586465067,-56.152,-31.25,146.484,1.953,0,0
1586465067,-67.383,-26.855,153.32,13.184,0,0
1586465067,-77.637,-26.855,215.332,-29.785,0,0
1586465067,-75.195,-30.273,212.402,-62.012,0,0
1586465067,-70.801,-32.715,140.137,-15.137,0,0
1586465067,-67.871,-30.762,166.016,16.602,0,0
1586465067,-44.922,-27.832,93.75,-18.066,0,0
1586465067,-39.551,-29.785,-110.352,-45.41,0,0
1586465067,-56.641,-32.227,152.832,-30.762,0,0
1586465067,-54.199,-30.273,270.02,6.348,0,0
1586465067,-46.875,-32.227,208.984,6.836,0,0
1586465067,-46.387,-33.691,197.266,-29.297,0,0
1586465067,-75.684,-30.273,189.941,-59.57,0,0
1586465067,-69.824,-28.809,208.008,-16.113,0,0
1586465067,-51.27,-32.715,194.824,18.066,0,0
1586465067,-45.41,-31.738,169.434,-35.645,0,0
1586465067,-31.25,-29.785,49.805,-56.641,0,0
1586465067,-41.992,-31.738,-146.973,-20.508,0,0
1586465067,-62.988,-29.785,116.211,3.418,0,0
1586465067,-57.129,-28.32,223.633,-25.391,0,0
1586465067,-56.641,-25.391,210.938,-58.594,0,0
1586465067,-43.945,-25.391,196.289,-29.785,0,0
1586465067,-32.715,-25.879,40.527,18.555,0,0
1586465067,-23.926,-24.414,189.453,5.859,0,0
1586465067,-41.016,-27.344,216.797,-39.551,0,0
1586465067,-68.359,-30.762,185.059,-41.016,0,0
1586465067,-54.688,-34.18,211.914,-2.93,0,0
1586465067,-50.293,-37.109,89.844,6.836,0,0
1586465067,-62.012,-38.574,60.547,-38.086,0,0
1586465067,-67.871,-38.574,90.82,-28.32,0,0
1586465067,-57.617,-36.133,155.762,11.719,0,0
1586465067,-35.645,-34.668,232.422,16.602,0,0
1586465067,-58.105,-36.133,19.531,-31.738,0,0
1586465067,-53.711,-37.109,-34.668,-64.941,0,0
1586465067,-65.43,-38.574,201.172,-34.18,0,0
1586465067,-82.52,-34.668,249.512,7.812,0,0
1586465067,-62.5,-33.691,239.258,-8.789,0,0
1586465067,-53.711,-38.086,190.918,-43.457,0,0
1586465067,-29.785,-32.227,223.633,18.555,0,0
1586465067,-21.484,-33.203,250,44.434,0,0
1586465067,-29.297,-40.039,109.863,-14.648,0,0
1586465067,-45.41,-41.992,136.719,-64.453,0,0
1586465067,-42.48,-40.039,94.727,-41.504,0,0
1586465067,-14.16,-34.18,-41.992,11.23,0,0
1586465067,-45.41,-28.32,185.547,10.254,0,0
1586465067,-52.246,-30.273,171.875,-35.645,0,0
1586465067,-19.531,-29.785,104.004,-55.664,0,0
1586465067,-39.551,-27.344,148.926,-2.441,0,0
1586465067,-33.691,-31.25,219.238,23.438,0,0
1586465067,-40.039,-35.156,217.773,-16.113,0,0
1586465067,-56.641,-34.18,171.387,-63.477,0,0
1586465067,-34.668,-33.691,173.828,-27.832,0,0
1586465067,-46.387,-35.645,115.234,35.156,0,0
1586465067,-63.477,-37.598,101.562,-1.953,0,0
1586465067,-56.152,-37.109,143.066,-45.898,0,0
1586465067,-36.621,-29.297,160.156,-14.648,0,0
1586465067,-35.156,-27.344,219.238,15.625,0,0
1586465067,-34.668,-32.715,164.062,-8.301,0,0
1586465067,-34.18,-33.691,33.691,-35.156,0,0
1586465067,-25.879,-32.715,172.363,-34.18,0,0
1586465067,-4.395,-37.598,166.992,-11.719,0,0
1586465067,-20.996,-41.016,127.93,-5.371,0,0
1586465067,-29.785,-39.062,137.207,-39.551,0,0
1586465067,-31.25,-41.992,-145.508,-51.758,0,0
1586465067,-67.871,-39.062,-8.301,-17.09,0,0
1586465067,-72.754,-32.227,125.488,9.277,0,0
1586465067,-57.129,-31.25,146.484,-9.277,0,0
1586465067,-55.176,-34.668,165.527,-55.176,0,0
1586465067,-52.246,-39.062,-116.211,-33.691,0,0
1586465067,-46.387,-34.668,65.43,10.254,0,0
1586465067,-53.711,-29.785,196.777,-20.996,0,0
1586465067,-56.152,-32.715,143.066,-62.988,0,0
1586465067,-35.645,-37.109,178.711,-45.898,0,0
1586465067,9.277,-39.062,60.059,-1.953,0,0
1586465067,-34.18,-36.621,153.32,12.695,0,0
1586465067,-73.73,-40.527,119.629,-45.41,0,0
1586465067,-55.176,-40.527,0,-73.73,0,0
1586465067,-51.758,-37.109,100.098,-20.02,0,0
1586465067,-62.012,-37.598,33.691,11.23,0,0
1586465067,-65.43,-37.109,-27.832,-30.762,0,0
1586465067,-48.34,-28.809,161.621,-64.453,0,0
1586465067,-48.828,-20.996,201.172,-22.949,0,0
1586465067,-65.43,-26.367,188.965,14.16,0,0
1586465067,-73.73,-33.691,123.047,-50.293,0,0
1586465067,-87.402,-31.738,123.535,-93.262,0,0
1586465067,-83.496,-30.273,157.715,-54.688,0,0
1586465067,-74.219,-31.25,174.316,-17.09,0,0
1586465067,-71.777,-31.25,216.797,-27.832,0,0
1586465067,-70.312,-36.133,-16.602,-66.406,0,0
1586465067,-65.918,-37.109,-77.637,-59.57,0,0
1586465067,-58.105,-29.785,186.523,-1.465,0,0
1586465067,-49.805,-27.832,142.578,6.836,0,0
1586465067,-50.293,-32.715,132.812,-63.477,0,0
1586465067,-51.27,-34.18,126.465,-72.754,0,0
1586465067,-43.457,-28.809,135.254,-16.113,0,0
1586465067,-41.016,-29.785,143.066,11.23,0,0
1586465067,-62.5,-33.691,142.09,-25.391,0,0
1586465067,-59.082,-30.273,127.93,-41.504,0,0
1586465067,-53.711,-30.762,116.699,-20.02,0,0
1586465067,-66.406,-41.016,134.766,2.93,0,0
1586465067,-61.035,-45.898,30.762,-2.441,0,0
1586465067,-50.781,-41.992,-37.109,-45.898,0,0
1586465067,-44.922,-36.621,60.059,-38.086,0,0
1586465067,-33.691,-36.133,125,-6.348,0,0
1586465067,-59.57,-41.016,-209.961,-15.137,0,0
1586465067,-78.125,-33.691,-66.406,-50.781,0,0
1586465067,-54.199,-27.832,74.219,-17.578,0,0
1586465067,-63.477,-27.832,114.258,34.668,0,0
1586465067,-61.523,-30.762,170.898,11.23,0,0
1586465067,-38.086,-31.25,46.387,-29.297,0,0
1586465067,-58.594,-31.738,136.23,-24.414,0,0
1586465067,-71.777,-34.668,201.66,-0.488,0,0
1586465067,-61.035,-36.621,106.934,18.066,0,0
1586465067,-64.453,-36.133,70.312,-17.09,0,0
1586465067,-49.316,-38.574,-167.48,-49.805,0,0
1586465067,-39.062,-36.621,-117.188,-16.602,0,0
1586465067,-51.758,-35.156,181.152,13.672,0,0
1586465067,-48.828,-38.574,174.316,-11.23,0,0
1586465067,-38.086,-38.574,142.578,-42.969,0,0
1586465067,-58.594,-41.992,78.613,-32.715,0,0
1586465067,-65.43,-41.992,123.047,0.488,0,0
1586465067,-51.758,-38.574,111.328,1.953,0,0
1586465067,-41.016,-34.668,142.578,-41.016,0,0
1586465067,-52.734,-33.691,140.137,-36.621,0,0
1586465067,-62.988,-35.156,94.727,22.461,0,0
1586465067,-47.852,-36.621,115.234,29.785,0,0
1586465067,-48.34,-38.086,132.324,-43.457,0,0
1586465067,-47.852,-34.668,185.547,-57.617,0,0
1586465067,-40.039,-30.762,255.371,-1.465,0,0
1586465067,-40.039,-37.598,108.887,21.484,0,0
1586465067,-56.641,-38.086,-89.355,-2.93,0,0
1586465067,-94.238,-33.203,140.625,-29.785,0,0
1586465067,-93.262,-29.297,230.469,5.371,0,0
1586465067,-64.941,-29.297,187.5,45.898,0,0
1586465067,-55.664,-30.762,147.949,17.578,0,0
1586465067,-68.359,-29.297,164.062,-21.484,0,0
1586465067,-66.895,-29.785,182.129,4.883,0,0
1586465067,-51.27,-30.762,168.457,36.621,0,0
1586465067,-59.57,-33.691,188.965,12.695,0,0
1586465067,-55.664,-31.738,174.805,-25.879,0,0
1586465067,-41.992,-29.785,-108.887,-10.254,0,0
1586465067,-55.664,-22.461,129.883,29.785,0,0
1586465067,-55.664,-19.531,346.191,46.387,0,0
1586465067,-61.523,-21.484,217.773,35.645,0,0
1586465067,-49.805,-22.949,189.941,-18.555,0,0
1586465067,-54.199,-20.996,168.457,15.137,0,0
1586465067,-70.801,-23.926,236.328,30.762,0,0
1586465067,-55.664,-28.809,191.895,-13.672,0,0
1586465067,-69.824,-29.297,154.297,-37.109,0,0
1586465067,-95.215,-30.762,140.625,-8.301,0,0
1586465067,-68.359,-28.809,-21.484,49.316,0,0
1586465067,-50.293,-30.762,155.273,19.531,0,0
1586465067,-70.312,-26.855,257.812,-20.996,0,0
1586465067,-75.195,-19.043,251.465,-7.324,0,0
1586465067,-72.266,-17.09,259.277,25.879,0,0
1586465067,-77.637,-18.066,138.184,30.762,0,0
1586465067,-83.008,-18.066,192.871,-11.23,0,0
1586465067,-83.984,-13.184,233.398,-20.02,0,0
1586465067,-79.102,-18.066,250,9.277,0,0
1586465067,-77.148,-23.438,259.277,21.484,0,0
1586465067,-78.613,-25.391,97.168,-5.859,0,0
1586465067,-74.219,-24.902,111.816,-23.438,0,0
1586465067,-67.383,-21.484,249.512,5.859,0,0
1586465067,-70.312,-19.043,266.602,28.809,0,0
1586465067,-70.312,-18.066,249.023,-6.348,0,0
1586465067,-68.359,-20.508,128.418,-41.016,0,0
1586465067,-67.383,-25.879,123.047,-15.137,0,0
1586465067,-45.898,-19.531,233.887,36.621,0,0
1586465067,-59.082,-14.648,242.676,7.812,0,0
1586465067,-68.848,-21.973,235.352,-54.199,0,0
1586465067,-54.199,-25.391,202.637,-26.855,0,0
1586465067,-69.824,-24.902,214.844,20.02,0,0
1586465067,-76.172,-28.809,215.82,6.348,0,0
1586465067,-68.848,-29.297,154.297,-34.18,0,0
1586465067,-70.312,-21.973,236.328,-26.855,0,0
1586465067,-63.965,-23.926,210.449,10.742,0,0
1586465067,-54.688,-26.855,-50.293,35.156,0,0
1586465067,-50.781,-23.438,148.438,-6.836,0,0
1586465067,-60.059,-24.902,259.277,-37.598,0,0
1586465067,-71.289,-24.902,242.188,7.812,0,0
1586465067,-70.312,-22.949,258.789,34.18,0,0
1586465067,-56.152,-24.414,213.379,0,0,0
1586465067,-54.688,-26.855,174.805,-28.32,0,0
1586465067,-77.148,-28.809,213.867,-18.066,0,0
1586465067,-73.242,-31.25,221.68,3.906,0,0
1586465067,-65.918,-31.25,145.02,6.348,0,0
1586465067,-69.336,-31.25,-125,-27.832,0,0
1586465067,-79.59,-29.297,68.848,-62.988,0,0
1586465067,-77.148,-29.297,281.738,-14.648,0,0
1586465067,-62.5,-23.438,260.254,0.488,0,0
1586465067,-78.125,-22.949,190.43,-51.758,0,0
1586465067,-102.051,-24.902,106.445,-59.082,0,0
1586465067,-109.375,-27.344,228.027,-13.184,0,0
1586465067,-93.75,-30.273,228.027,5.859,0,0
1586465067,-81.543,-27.832,213.867,-34.668,0,0
1586465067,-90.332,-29.297,154.297,-66.406,0,0
1586465067,-93.75,-31.738,0,-33.203,0,0
1586465067,-83.008,-27.344,99.609,2.441,0,0
1586465067,-78.125,-26.367,131.836,-7.324,0,0
1586465067,-94.238,-26.855,183.594,-49.316,0,0
1586465067,-90.332,-25.879,224.121,-48.828,0,0
1586465067,-79.102,-25.879,-1.465,-7.812,0,0
1586465067,-79.102,-26.367,88.867,-18.555,0,0
1586465067,-61.035,-29.785,184.57,-68.848,0,0
1586465067,-73.242,-33.203,139.16,-81.543,0,0
1586465067,-97.168,-32.227,192.383,-21.484,0,0
1586465067,-91.309,-35.645,-68.359,7.812,0,0
1586465067,-77.637,-37.109,-121.582,-48.828,0,0
1586465067,-82.031,-35.645,44.434,-90.82,0,0
1586465067,-101.562,-37.598,31.738,-56.152,0,0
1586465067,-106.934,-34.18,158.691,-22.461,0,0
1586465067,-82.52,-37.109,-25.391,-21.484,0,0
1586465067,-72.266,-45.898,-162.598,-79.102,0,0
1586465067,-91.309,-44.434,115.234,-75.684,0,0
1586465067,-109.863,-40.527,195.801,-23.926,0,0
1586465067,-111.816,-39.062,129.395,-47.363,0,0
1586465067,-119.141,-40.527,-5.859,-83.008,0,0
1586465067,-120.605,-42.48,22.461,-65.43,0,0
1586465067,-96.68,-43.457,100.098,-21.973,0,0
1586465067,-86.914,-48.828,54.688,-11.719,0,0
1586465067,-85.938,-52.734,-32.715,-59.082,0,0
1586465067,-91.797,-59.57,-249.512,-94.238,0,0
1586465067,-121.582,-66.406,-367.676,-38.086,0,0
1586465067,-124.023,-58.105,10.742,-8.789,0,0
1586465067,-104.98,-51.27,116.211,-56.152,0,0
1586465067,-100.098,-51.27,60.059,-82.031,0,0
1586465067,-106.445,-54.199,38.086,-40.039,0,0
1586465067,-120.605,-55.176,-100.098,-12.207,0,0
1586465067,-112.793,-53.223,19.531,-58.594,0,0
1586465067,-98.633,-55.664,20.508,-73.73,0,0
1586465067,-88.379,-56.152,6.836,-42.969,0,0
1586465067,-92.773,-56.152,15.137,-41.504,0,0
1586465067,-120.605,-59.082,-165.527,-49.316,0,0
1586465067,-113.281,-57.129,-159.668,-81.055,0,0
1586465067,-93.75,-60.547,-5.371,-74.707,0,0
1586465067,-73.73,-62.988,103.027,-28.32,0,0
1586465067,-66.895,-60.059,32.715,-19.531,0,0
1586465067,-65.43,-63.477,-265.137,-49.316,0,0
1586465068,-81.055,-58.594,-97.168,-62.012,0,0
1586465068,-90.332,-54.199,100.098,-17.09,0,0
1586465068,-83.008,-58.594,84.473,1.953,0,0
1586465068,-92.773,-61.035,42.969,-32.715,0,0
1586465068,-82.031,-62.012,-188.477,-50.293,0,0
1586465068,-77.637,-53.223,-88.867,3.906,0,0
1586465068,-67.383,-51.27,-0.977,28.32,0,0
1586465068,-62.988,-51.758,-49.316,-35.156,0,0
1586465068,-77.148,-55.664,2.93,-77.637,0,0
1586465068,-64.453,-56.152,-138.672,-48.34,0,0
1586465068,-64.941,-52.246,-122.07,-1.953,0,0
1586465068,-77.148,-55.176,121.094,-20.996,0,0
1586465068,-85.938,-55.176,111.816,-55.664,0,0
1586465068,-87.891,-55.664,88.379,-39.551,0,0
1586465068,-86.914,-61.035,76.172,-15.625,0,0
1586465068,-73.73,-57.129,131.348,-9.766,0,0
1586465068,-60.547,-51.27,164.062,-37.598,0,0
1586465068,-59.082,-50.781,101.562,-51.27,0,0
1586465068,-32.227,-48.828,72.266,-8.301,0,0
1586465068,-41.992,-48.34,-12.695,-8.301,0,0
1586465068,-58.594,-46.875,-144.043,-33.203,0,0
1586465068,-41.504,-41.016,77.148,-35.156,0,0
1586465068,-54.199,-41.504,153.32,-20.508,0,0
1586465068,-78.613,-42.969,156.738,22.949,0,0
1586465068,-94.727,-46.387,119.629,-0.977,0,0
1586465068,-97.656,-45.898,85.938,-48.34,0,0
1586465068,-90.332,-36.621,135.254,-18.066,0,0
1586465068,-89.844,-40.527,104.492,26.367,0,0
1586465068,-67.383,-44.922,129.883,19.043,0,0
1586465068,-54.688,-43.945,70.312,-10.742,0,0
1586465068,-55.664,-45.41,-106.934,-17.578,0,0
1586465068,-57.129,-38.574,-8.301,21.973,0,0
1586465068,-46.387,-36.621,107.91,39.551,0,0
1586465068,-16.113,-40.039,154.297,-6.836,0,0
1586465068,-51.27,-41.016,18.066,-19.531,0,0
1586465068,-66.895,-44.922,-305.176,25.391,0,0
1586465068,-41.992,-42.969,-18.066,31.25,0,0
1586465068,-32.715,-39.551,161.621,1.953,0,0
1586465068,-52.734,-44.434,66.895,-20.02,0,0
1586465068,-73.73,-43.945,15.625,3.418,0,0
1586465068,-53.223,-42.48,-32.227,52.734,0,0
1586465068,-43.457,-41.992,98.145,23.926,0,0
1586465068,-53.223,-43.457,-44.922,-18.066,0,0
1586465068,-41.992,-44.434,-77.148,-11.719,0,0
1586465068,-21.973,-40.527,104.98,22.461,0,0
1586465068,-18.066,-41.016,-78.125,37.598,0,0
1586465068,-34.668,-44.922,4.395,32.227,0,0
1586465068,-58.594,-44.434,91.309,-6.836,0,0
1586465068,-57.129,-47.363,55.176,5.859,0,0
1586465068,-31.738,-49.316,143.555,31.738,0,0
1586465068,-44.922,-48.828,-156.25,-9.766,0,0
1586465068,-59.57,-49.805,-197.754,-49.316,0,0
1586465068,-56.152,-48.34,130.859,-11.719,0,0
1586465068,-48.34,-49.316,99.121,30.762,0,0
1586465068,-42.969,-46.387,18.555,2.441,0,0
1586465068,-37.109,-48.34,-59.57,-22.949,0,0
1586465068,-22.461,-46.387,-32.227,8.301,0,0
1586465068,-15.625,-44.922,153.809,24.902,0,0
1586465068,-36.621,-43.945,142.578,14.648,0,0
1586465068,-36.133,-41.016,107.91,-34.18,0,0
1586465068,-20.996,-44.434,31.738,-25.879,0,0
1586465068,-6.348,-42.48,45.898,20.02,0,0
1586465068,-0.977,-35.645,160.645,-5.371,0,0
1586465068,-8.301,-36.133,118.652,-45.898,0,0
1586465068,-16.113,-32.227,96.68,-34.18,0,0
1586465068,-27.344,-33.203,79.102,5.859,0,0
1586465068,-22.949,-37.109,62.012,18.066,0,0
1586465068,-29.297,-34.18,112.793,-20.508,0,0
1586465068,-37.598,-31.738,141.113,-41.016,0,0
1586465068,-35.156,-28.809,169.922,11.719,0,0
1586465068,-26.855,-31.25,145.02,36.133,0,0
1586465068,-11.23,-35.156,-155.762,-5.371,0,0
1586465068,-15.625,-26.855,58.105,-46.875,0,0
1586465068,-8.789,-21.484,221.68,-25.391,0,0
1586465068,-8.301,-21.484,192.871,-1.465,0,0
1586465068,-29.297,-25.391,204.102,-20.996,0,0
1586465068,-17.578,-30.273,124.512,-42.48,0,0
1586465068,-20.02,-28.32,143.555,-31.25,0,0
1586465068,-25.391,-24.414,123.047,3.906,0,0
1586465068,-25.879,-25.391,116.211,-3.906,0,0
1586465068,-21.973,-23.926,99.121,-32.227,0,0
1586465068,-0.488,-21.484,-124.512,-34.18,0,0
1586465068,-0.488,-17.578,120.605,-24.414,0,0
1586465068,-1.465,-13.184,294.434,-0.977,0,0
1586465068,-4.395,-16.602,189.453,-26.367,0,0
1586465068,-10.742,-15.625,164.062,-60.547,0,0
1586465068,-1.465,-12.695,90.82,-18.555,0,0
1586465068,-14.648,-10.254,201.172,17.578,0,0
1586465068,-32.227,-11.719,237.305,-14.16,0,0
1586465068,-26.367,-12.695,187.5,-46.875,0,0
1586465068,-28.32,-16.602,116.699,-35.156,0,0
1586465068,-23.438,-22.461,38.086,-5.859,0,0
1586465068,-28.809,-19.043,171.875,-7.324,0,0
1586465068,-30.762,-19.531,213.379,-48.828,0,0
1586465068,-21.484,-24.902,141.113,-61.523,0,0
1586465068,-30.273,-24.902,154.297,-18.066,0,0
1586465068,-30.762,-24.902,90.82,0.977,0,0
1586465068,-37.109,-25.879,32.227,-37.109,0,0
1586465068,-37.598,-26.367,170.898,-61.035,0,0
1586465068,-26.367,-27.344,156.738,-19.531,0,0
1586465068,-21.484,-26.855,182.617,-4.395,0,0
1586465068,-26.855,-31.738,124.512,-39.551,0,0
1586465068,-41.992,-33.691,70.312,-73.242,0,0
1586465068,-51.758,-28.809,102.051,-43.457,0,0
1586465068,-44.434,-23.926,107.422,-12.695,0,0
1586465068,-35.645,-22.949,219.238,-45.898,0,0
1586465068,-31.738,-24.902,83.008,-72.754,0,0
1586465068,-24.902,-26.367,-123.047,-44.922,0,0
1586465068,-27.344,-23.926,151.855,3.418,0,0
1586465068,-18.555,-24.414,203.613,-8.301,0,0
1586465068,-15.137,-32.715,61.523,-52.734,0,0
1586465068,-33.203,-36.133,43.945,-69.336,0,0
1586465068,-23.438,-34.18,138.184,-29.785,0,0
1586465068,-14.648,-30.273,209.473,-8.301,0,0
1586465068,-34.18,-37.598,66.895,-46.875,0,0
1586465068,-39.551,-42.48,48.828,-65.43,0,0
1586465068,-54.688,-34.668,115.723,-36.133,0,0
1586465068,-47.363,-37.109,28.32,-2.93,0,0
1586465068,-39.551,-41.992,81.055,-34.668,0,0
1586465068,-37.598,-39.062,105.469,-73.73,0,0
1586465068,-41.992,-36.621,149.902,-57.617,0,0
1586465068,-50.781,-36.133,136.23,9.766,0,0
1586465068,-44.922,-38.086,-180.176,-9.277,0,0
1586465068,-42.969,-37.598,-6.348,-79.102,0,0
1586465068,-48.828,-35.645,141.602,-65.43,0,0
1586465068,-48.34,-33.691,42.969,-3.418,0,0
1586465068,-43.457,-34.668,49.316,-11.23,0,0
1586465068,-26.855,-41.016,-287.598,-53.711,0,0
1586465068,-24.414,-41.016,-246.582,-50.781,0,0
1586465068,-50.781,-40.039,133.789,-28.32,0,0
1586465068,-58.105,-44.434,152.832,-17.09,0,0
1586465068,-47.363,-40.039,87.891,-45.898,0,0
1586465068,-34.668,-40.039,-129.883,-65.43,0,0
1586465068,-30.273,-44.434,4.395,-24.902,0,0
1586465068,-48.828,-46.875,136.23,-20.508,0,0
1586465068,-45.41,-50.293,71.777,-60.547,0,0
1586465068,-55.176,-50.781,71.777,-71.777,0,0
1586465068,-59.082,-49.316,12.695,-45.898,0,0
1586465068,-51.758,-48.828,0.977,-18.555,0,0
1586465068,-58.594,-45.898,61.523,-39.551,0,0
1586465068,-50.781,-45.41,50.293,-79.102,0,0
1586465068,-56.641,-44.434,84.961,-48.34,0,0
1586465068,-52.734,-43.457,-7.812,-1.953,0,0
1586465068,-53.711,-50.781,-117.188,-19.531,0,0
1586465068,-56.641,-50.293,75.195,-60.547,0,0
1586465068,-37.598,-43.457,107.91,-70.801,0,0
1586465068,-48.828,-52.734,74.707,-45.898,0,0
1586465068,-43.945,-58.105,43.457,-31.738,0,0
1586465068,-41.504,-52.734,42.969,-48.828,0,0
1586465068,-51.758,-52.246,-66.895,-62.012,0,0
1586465068,-50.293,-55.664,-164.062,-59.082,0,0
1586465068,-63.477,-49.316,13.184,-30.273,0,0
1586465068,-53.711,-50.293,-49.805,-38.574,0,0
1586465068,-53.223,-60.547,-351.074,-79.59,0,0
1586465068,-63.477,-53.711,-27.832,-71.289,0,0
1586465068,-51.27,-45.41,134.766,-25.879,0,0
1586465068,-48.828,-47.852,1.953,-45.41,0,0
1586465068,-56.641,-54.199,30.273,-81.543,0,0
1586465068,-60.059,-55.176,4.883,-43.457,0,0
1586465068,-62.988,-54.199,87.891,-23.438,0,0
1586465068,-77.637,-54.688,102.539,-38.086,0,0
1586465068,-74.219,-54.688,116.211,-70.801,0,0
1586465068,-52.734,-54.688,-58.594,-86.426,0,0
1586465068,-46.875,-51.758,-328.125,-45.898,0,0
1586465068,-60.547,-46.387,22.949,-25.879,0,0
1586465068,-53.711,-47.363,200.195,-50.781,0,0
1586465068,-42.48,-48.828,111.328,-76.172,0,0
1586465068,-56.641,-48.828,119.141,-39.062,0,0
1586465068,-65.918,-49.316,14.16,-16.602,0,0
1586465068,-72.754,-47.363,79.59,-57.129,0,0
1586465068,-60.547,-48.828,61.523,-58.105,0,0
1586465068,-52.246,-45.898,60.547,-43.945,0,0
1586465068,-58.594,-46.387,146.973,-28.32,0,0
1586465068,-52.246,-45.41,10.254,-18.066,0,0
1586465068,-41.016,-46.387,-29.785,-45.41,0,0
1586465068,-46.387,-49.805,17.09,-51.758,0,0
1586465068,-58.594,-45.898,76.172,-11.719,0,0
1586465068,-47.852,-44.922,157.715,-4.395,0,0
1586465068,-61.035,-49.805,-84.473,-38.574,0,0
1586465068,-75.684,-54.199,-93.75,-50.293,0,0
1586465068,-59.57,-53.711,133.789,-26.855,0,0
1586465068,-27.832,-49.316,141.113,3.418,0,0
1586465068,-27.832,-45.898,148.926,-15.625,0,0
1586465068,-36.621,-41.992,53.223,-49.316,0,0
1586465068,-47.852,-40.527,108.398,-20.02,0,0
1586465068,-37.598,-42.969,146.484,11.719,0,0
1586465068,-33.203,-46.875,34.668,-6.836,0,0
1586465068,-64.453,-43.457,86.914,-40.039,0,0
1586465068,-64.941,-42.48,18.555,-35.645,0,0
1586465068,-57.617,-44.922,-141.602,3.418,0,0
1586465068,-48.34,-40.039,95.215,-3.418,0,0
1586465068,-60.059,-36.621,153.32,-49.316,0,0
1586465068,-81.543,-37.109,103.027,-45.41,0,0
1586465068,-83.984,-39.062,109.863,-5.371,0,0
1586465068,-83.984,-38.086,139.16,5.859,0,0
1586465068,-96.191,-36.621,144.043,-17.578,0,0
1586465068,-90.332,-38.086,129.395,-66.895,0,0
1586465068,-87.891,-41.504,140.137,-28.32,0,0
1586465068,-80.566,-41.016,52.734,25.391,0,0
1586465068,-68.848,-34.18,-21.973,0.977,0,0
1586465068,-73.73,-36.133,64.453,-42.48,0,0
1586465068,-92.773,-36.133,59.57,-17.578,0,0
1586465068,-93.75,-34.668,163.086,23.926,0,0
1586465068,-79.102,-37.598,137.695,8.301,0,0
1586465068,-81.055,-39.551,-252.441,-18.066,0,0
1586465068,-70.801,-39.551,-38.574,-2.441,0,0
1586465068,-59.57,-38.086,186.523,3.906,0,0
1586465068,-56.641,-34.18,127.441,0,0,0
1586465068,-46.875,-33.691,92.285,-20.996,0,0
1586465068,-41.016,-37.598,-8.301,-30.762,0,0
1586465068,-62.5,-37.109,12.207,8.301,0,0
1586465068,-70.801,-31.738,61.035,37.598,0,0
1586465068,-67.383,-26.855,108.398,14.16,0,0
1586465068,-66.406,-22.461,127.93,-8.301,0,0
1586465068,-66.895,-23.438,-113.77,-3.418,0,0
1586465068,-72.266,-26.367,-79.59,16.602,0,0
1586465068,-63.965,-23.438,99.609,-5.859,0,0
1586465068,-58.105,-24.902,161.133,-33.691,0,0
1586465068,-46.875,-25.879,173.34,-6.348,0,0
1586465068,-50.781,-28.809,77.148,12.207,0,0
1586465068,-62.012,-29.785,134.766,9.766,0,0
1586465068,-54.688,-26.855,152.344,-18.555,0,0
1586465068,-54.688,-28.809,65.43,-25.391,0,0
1586465068,-53.223,-24.414,78.125,18.066,0,0
1586465068,-49.805,-20.02,84.473,29.297,0,0
1586465068,-64.941,-21.973,131.348,-8.789,0,0
1586465068,-71.777,-23.926,212.402,-35.156,0,0
1586465068,-54.688,-20.996,200.684,0.977,0,0
1586465068,-52.246,-21.973,197.266,21.973,0,0
1586465068,-59.57,-24.414,18.555,-7.812,0,0
1586465068,-71.289,-27.832,-86.426,-48.34,0,0
1586465068,-77.637,-23.438,100.586,-22.461,0,0
1586465068,-65.43,-18.066,192.871,1.953,0,0
1586465068,-58.594,-15.137,203.125,-23.926,0,0
1586465068,-47.852,-18.066,6.348,-44.434,0,0
1586465068,-41.992,-22.949,-75.195,-23.438,0,0
1586465068,-64.941,-20.996,143.555,3.906,0,0
1586465068,-68.848,-21.973,175.293,-9.277,0,0
1586465068,-59.57,-23.438,166.016,-32.227,0,0
1586465068,-65.918,-24.902,166.016,-11.23,0,0
1586465068,-76.172,-26.367,165.039,-9.277,0,0
1586465068,-94.238,-24.414,161.133,-21.973,0,0
1586465068,-90.82,-25.879,143.555,-35.645,0,0
1586465068,-89.355,-34.668,178.223,-47.363,0,0
1586465068,-89.844,-36.621,177.734,-26.367,0,0
1586465068,-79.102,-30.762,146.973,-2.441,0,0
1586465068,-82.031,-30.762,112.305,-14.648,0,0
1586465068,-80.566,-29.785,70.801,-49.316,0,0
1586465068,-77.637,-29.297,145.02,-41.016,0,0
1586465068,-92.773,-31.738,138.184,-5.859,0,0
1586465068,-105.957,-35.645,-137.695,-35.645,0,0
1586465068,-94.238,-30.273,88.379,-65.918,0,0
1586465068,-101.562,-25.391,254.395,-49.316,0,0
1586465068,-96.68,-26.367,208.008,-4.395,0,0
1586465068,-82.52,-24.414,191.895,-1.953,0,0
1586465068,-91.309,-22.949,81.055,-55.664,0,0
1586465069,-81.543,-20.02,192.383,-75.195,0,0
1586465069,-75.195,-23.926,209.961,-23.438,0,0
1586465069,-64.453,-27.344,103.027,5.371,0,0
1586465069,-40.039,-26.367,107.422,-55.176,0,0
1586465069,-55.176,-30.762,16.113,-76.172,0,0
1586465069,-64.941,-35.156,79.59,-41.992,0,0
1586465069,-67.871,-34.668,245.117,-15.625,0,0
1586465069,-71.289,-32.227,210.449,-52.246,0,0
1586465069,-83.496,-34.18,178.711,-66.895,0,0
1586465069,-94.238,-37.109,41.992,-32.227,0,0
1586465069,-80.078,-30.762,51.27,-0.488,0,0
1586465069,-71.777,-28.32,222.656,-5.371,0,0
1586465069,-68.359,-30.273,214.355,-61.035,0,0
1586465069,-71.289,-27.344,184.082,-69.336,0,0
1586465069,-62.012,-28.32,102.539,-34.18,0,0
1586465069,-80.078,-25.391,104.492,-15.625,0,0
1586465069,-84.961,-27.344,167.969,-48.34,0,0
1586465069,-77.637,-27.344,197.266,-71.777,0,0
1586465069,-95.215,-23.438,216.797,-23.438,0,0
1586465069,-100.098,-28.32,148.438,5.371,0,0
1586465069,-87.402,-31.25,87.891,-34.18,0,0
1586465069,-89.355,-30.273,152.344,-62.988,0,0
1586465069,-91.797,-32.227,173.34,-41.504,0,0
1586465069,-70.312,-29.785,209.961,-8.789,0,0
1586465069,-84.961,-32.715,122.559,-30.762,0,0
1586465069,-102.539,-41.016,-228.516,-61.035,0,0
1586465069,-103.027,-37.598,-30.273,-42.48,0,0
1586465069,-106.445,-36.621,170.41,-25.391,0,0
1586465069,-90.332,-41.992,206.543,-6.348,0,0
1586465069,-88.867,-37.598,133.789,-42.48,0,0
1586465069,-118.164,-40.039,-219.727,-72.266,0,0
1586465069,-117.676,-39.062,67.383,-22.949,0,0
1586465069,-94.727,-33.691,254.883,-8.789,0,0
1586465069,-98.145,-37.109,157.227,-56.152,0,0
1586465069,-95.215,-42.969,108.887,-69.824,0,0
1586465069,-78.613,-41.016,5.371,-12.207,0,0
1586465069,-69.336,-34.18,83.008,4.883,0,0
1586465069,-68.359,-36.621,92.773,-37.598,0,0
1586465069,-63.477,-38.086,98.633,-53.223,0,0
1586465069,-64.453,-41.016,59.57,-29.785,0,0
1586465069,-70.312,-46.387,-157.227,-24.902,0,0
1586465069,-83.496,-43.945,67.871,-59.57,0,0
1586465069,-89.355,-42.48,191.406,-74.707,0,0
1586465069,-84.961,-45.898,129.883,-62.5,0,0
1586465069,-94.727,-42.969,161.621,-28.32,0,0
1586465069,-85.938,-37.598,-4.395,-35.156,0,0
1586465069,-63.965,-34.18,105.957,-81.543,0,0
1586465069,-78.613,-37.109,177.734,-73.242,0,0
1586465069,-86.426,-37.109,150.391,-48.34,0,0
1586465069,-80.566,-35.645,169.434,-42.48,0,0
1586465069,-81.055,-37.109,-56.641,-66.895,0,0
1586465069,-81.055,-37.598,-45.41,-94.727,0,0
1586465069,-80.078,-37.598,97.656,-73.242,0,0
1586465069,-102.539,-35.156,129.883,-52.246,0,0
1586465069,-99.609,-35.645,165.527,-73.73,0,0
1586465069,-77.637,-42.48,-41.016,-65.918,0,0
1586465069,-100.586,-40.527,-77.148,-65.43,0,0
1586465069,-114.746,-33.203,101.074,-66.895,0,0
1586465069,-110.352,-35.645,125,-64.941,0,0
1586465069,-101.562,-32.227,130.371,-109.375,0,0
1586465069,-124.512,-30.762,-12.695,-122.07,0,0
1586465069,-145.996,-33.691,-62.988,-93.262,0,0
1586465069,-139.16,-29.297,34.668,-110.84,0,0
1586465069,-161.621,-22.461,-40.039,-165.039,0,0
1586465069,-188.965,-21.484,-0.977,-197.266,0,0
1586465069,-211.914,-28.809,17.578,-180.176,0,0
1586465069,-238.281,-36.133,-239.746,-174.316,0,0
1586465069,-282.227,-33.203,-1.953,-274.902,0,0
1586465069,-308.594,-27.344,171.387,-335.449,0,0
1586465069,-319.824,-22.949,115.723,-303.711,0,0
1586465069,-343.75,-21.973,111.328,-285.645,0,0
1586465069,-344.727,-26.367,64.453,-321.289,0,0
1586465069,-323.242,-29.297,107.91,-344.238,0,0
1586465069,-326.66,-31.25,118.652,-292.969,0,0
1586465069,-314.453,-34.668,49.805,-257.324,0,0
1586465069,-272.949,-32.715,-41.504,-250.977,0,0
1586465069,-253.418,-34.18,-285.156,-234.375,0,0
1586465069,-221.191,-33.691,-22.949,-202.148,0,0
1586465069,-195.312,-33.691,161.133,-142.09,0,0
1586465069,-187.5,-35.156,69.824,-122.559,0,0
1586465069,-153.809,-32.715,47.363,-136.23,0,0
1586465069,-131.348,-34.668,-130.859,-119.629,0,0
1586465069,-123.535,-38.574,58.594,-67.871,0,0
1586465069,-104.492,-40.527,156.25,-40.039,0,0
1586465069,-85.938,-43.457,117.676,-46.387,0,0
1586465069,-67.383,-48.34,35.156,-46.875,0,0
1586465069,-68.848,-55.176,-129.395,-6.836,0,0
1586465069,-63.477,-52.246,-22.949,26.367,0,0
1586465069,-37.109,-49.805,71.777,16.602,0,0
1586465069,-37.109,-50.293,62.5,-0.977,0,0
1586465069,-32.715,-48.828,92.773,18.066,0,0
1586465069,-2.93,-55.176,-79.102,55.664,0,0
1586465069,-3.418,-57.617,-83.008,48.34,0,0
1586465069,-3.906,-49.805,128.418,13.184,0,0
1586465069,-4.395,-49.805,86.914,11.719,0,0
1586465069,-21.484,-52.246,93.262,53.223,0,0
1586465069,-20.508,-56.152,31.25,62.988,0,0
1586465069,-10.254,-55.664,29.297,28.32,0,0
1586465069,-7.812,-51.758,8.301,35.645,0,0
1586465069,-13.672,-53.711,-4.395,62.012,0,0
1586465069,-2.93,-53.223,132.324,64.453,0,0
1586465069,4.395,-50.781,-37.598,41.504,0,0
1586465069,-2.441,-50.293,-247.559,24.902,0,0
1586465069,7.324,-46.387,36.621,49.316,0,0
1586465069,12.207,-45.898,164.551,76.172,0,0
1586465069,5.371,-45.41,75.684,56.152,0,0
1586465069,1.953,-47.363,5.859,31.738,0,0
1586465069,17.09,-49.316,65.918,47.363,0,0
1586465069,21.973,-47.363,149.414,77.148,0,0
1586465069,22.949,-46.387,39.551,67.383,0,0
1586465069,34.18,-47.363,-32.715,36.133,0,0
1586465069,25.879,-47.852,-115.723,40.527,0,0
1586465069,14.16,-49.316,-299.316,70.801,0,0
1586465069,17.09,-45.898,3.906,79.102,0,0
1586465069,27.832,-42.48,163.086,39.551,0,0
1586465069,29.785,-38.574,76.172,27.344,0,0
1586465069,16.602,-42.969,68.359,71.777,0,0
1586465069,19.043,-47.852,122.07,81.055,0,0
1586465069,17.578,-42.48,131.836,37.598,0,0
1586465069,5.371,-40.039,45.898,11.719,0,0
1586465069,5.859,-40.039,103.027,48.828,0,0
1586465069,5.859,-39.551,98.633,75.684,0,0
1586465069,7.324,-40.039,-165.039,54.688,0,0
1586465069,13.184,-37.598,-98.145,18.066,0,0
1586465069,-2.93,-37.109,87.891,14.16,0,0
1586465069,0.977,-38.086,111.328,53.223,0,0
1586465069,9.277,-41.992,31.738,46.387,0,0
1586465069,-6.836,-44.434,-208.984,0.977,0,0
1586465069,-11.719,-37.109,-31.738,-7.812,0,0
1586465069,-22.461,-35.156,171.387,23.926,0,0
1586465069,-19.531,-35.645,145.996,50.781,0,0
1586465069,-10.742,-35.156,84.961,16.602,0,0
1586465069,-17.09,-38.086,-72.266,-19.531,0,0
1586465069,-17.09,-36.133,14.16,11.719,0,0
1586465069,-7.324,-37.109,72.266,31.738,0,0
1586465069,-26.367,-41.016,-31.738,-1.953,0,0
1586465069,-20.02,-38.086,-10.254,-17.578,0,0
1586465069,-7.324,-37.598,-31.25,10.254,0,0
1586465069,-32.227,-40.527,-61.035,44.434,0,0
1586465069,-47.363,-37.598,108.887,16.113,0,0
1586465069,-36.621,-37.598,127.441,-27.344,0,0
1586465069,-42.969,-35.645,112.305,-2.93,0,0
1586465069,-44.922,-32.715,87.402,37.598,0,0
1586465069,-46.875,-34.18,125.488,14.648,0,0
1586465069,-46.387,-36.133,147.461,-29.785,0,0
1586465069,-28.32,-34.668,89.355,-22.949,0,0
1586465069,-44.922,-38.086,69.336,14.648,0,0
1586465069,-50.781,-40.527,-23.926,28.32,0,0
1586465069,-39.551,-42.48,-222.168,-4.883,0,0
1586465069,-44.434,-41.016,46.387,-35.156,0,0
1586465069,-30.762,-42.48,166.504,-7.812,0,0
1586465069,-45.41,-45.898,158.691,7.324,0,0
1586465069,-65.918,-47.852,151.367,-21.484,0,0
1586465069,-67.383,-50.781,128.418,-37.109,0,0
1586465069,-69.336,-47.363,160.645,-0.488,0,0
1586465069,-64.941,-46.387,137.207,14.16,0,0
1586465069,-54.688,-45.41,125.977,-7.324,0,0
1586465069,-47.852,-44.922,20.02,-34.18,0,0
1586465069,-69.824,-49.805,-81.055,-31.738,0,0
1586465069,-60.059,-45.41,25.391,16.113,0,0
1586465069,-38.574,-40.039,99.121,21.484,0,0
1586465069,-36.621,-43.945,148.438,-8.789,0,0
1586465069,-51.27,-47.852,85.938,-27.832,0,0
1586465069,-55.664,-45.898,-208.984,11.719,0,0
1586465069,-37.109,-38.086,46.875,39.062,0,0
1586465069,-25.879,-33.691,198.242,-5.859,0,0
1586465069,-40.527,-33.203,121.582,-32.715,0,0
1586465069,-38.574,-36.133,143.555,2.441,0,0
1586465069,-46.875,-43.945,-0.977,34.668,0,0
1586465069,-60.059,-45.41,60.547,11.719,0,0
1586465069,-54.199,-39.551,23.438,-29.785,0,0
1586465069,-38.086,-37.598,1.465,-25.391,0,0
1586465069,-25.879,-38.086,79.102,1.953,0,0
1586465069,-42.969,-40.527,-142.09,-3.418,0,0
1586465069,-53.711,-39.551,-131.348,-38.574,0,0
1586465069,-52.734,-38.574,99.609,-44.922,0,0
1586465069,-61.523,-37.109,119.141,-1.953,0,0
1586465069,-62.012,-33.203,128.906,20.508,0,0
1586465069,-51.27,-41.504,-31.25,-25.391,0,0
1586465069,-72.754,-45.898,-19.043,-52.734,0,0
1586465069,-94.727,-41.992,109.863,-0.488,0,0
1586465069,-69.824,-47.852,19.043,22.461,0,0
1586465069,-59.082,-47.852,-44.922,-26.367,0,0
1586465069,-71.289,-46.875,-149.414,-40.527,0,0
1586465069,-75.684,-48.34,-159.668,-20.508,0,0
1586465069,-79.59,-43.945,69.824,-5.371,0,0
1586465069,-70.312,-42.48,57.617,-25.879,0,0
1586465069,-56.641,-41.992,-26.855,-47.852,0,0
1586465069,-44.434,-46.875,-91.309,-39.551,0,0
1586465069,-48.34,-49.316,-72.754,-18.555,0,0
1586465069,-62.988,-49.316,87.402,-18.066,0,0
1586465069,-65.918,-49.316,35.645,-52.734,0,0
1586465069,-61.035,-45.898,6.836,-60.059,0,0
1586465069,-51.758,-48.34,-47.852,-19.043,0,0
1586465069,-64.453,-52.734,-214.844,-1.465,0,0
1586465069,-72.266,-48.34,-154.785,-24.414,0,0
1586465069,-62.988,-41.016,-62.988,-57.129,0,0
1586465069,-56.152,-37.109,42.969,-32.715,0,0
1586465069,-60.547,-42.48,-4.395,4.395,0,0
1586465069,-63.477,-47.852,-331.055,-22.461,0,0
1586465069,-43.945,-42.969,-47.852,-46.875,0,0
1586465069,-46.875,-40.039,96.191,10.254,0,0
1586465069,-56.152,-42.48,-27.344,13.184,0,0
1586465069,-60.547,-44.434,16.602,-15.625,0,0
1586465069,-72.266,-44.434,-54.688,-50.293,0,0
1586465069,-69.824,-46.387,-5.371,-44.922,0,0
1586465069,-54.688,-47.852,-38.574,1.953,0,0
1586465069,-62.5,-46.387,-104.492,-2.93,0,0
1586465069,-79.59,-46.387,-190.918,-42.969,0,0
1586465069,-74.219,-46.875,-360.84,-44.434,0,0
1586465069,-72.754,-48.828,-86.426,-1.465,0,0
1586465069,-53.223,-48.34,124.512,8.789,0,0
1586465069,-46.875,-44.922,82.031,-35.156,0,0
1586465069,-59.57,-46.875,54.688,-43.457,0,0
1586465069,-63.477,-48.828,-55.176,-10.254,0,0
1586465069,-70.312,-50.781,94.727,-10.742,0,0
1586465069,-68.848,-49.805,90.332,-33.691,0,0
1586465069,-68.848,-45.898,-77.637,-56.641,0,0
1586465069,-84.961,-45.41,-68.848,-31.25,0,0
1586465069,-77.637,-41.504,-62.988,12.207,0,0
1586465069,-64.941,-39.062,31.25,-10.742,0,0
1586465069,-65.918,-41.504,56.641,-46.875,0,0
1586465069,-57.129,-44.434,37.109,-33.691,0,0
1586465069,-65.43,-45.898,124.023,-17.578,0,0
1586465069,-70.801,-51.27,-34.18,-18.066,0,0
1586465069,-70.801,-53.711,-95.215,-41.992,0,0
1586465069,-81.543,-51.27,73.242,-69.336,0,0
1586465069,-80.566,-50.781,77.148,-29.297,0,0
1586465069,-78.125,-46.387,87.402,-6.348,0,0
1586465069,-87.891,-47.852,-93.75,-41.016,0,0
1586465069,-83.008,-47.363,-243.164,-58.105,0,0
1586465069,-71.777,-40.039,-98.633,-25.391,0,0
1586465069,-71.777,-41.992,11.23,10.254,0,0
1586465069,-73.242,-47.363,108.887,-31.738,0,0
1586465069,-67.383,-48.828,-41.016,-76.172,0,0
1586465069,-58.105,-50.781,-332.031,-28.809,0,0
1586465069,-68.359,-47.363,5.371,0.488,0,0
1586465069,-78.613,-47.363,159.18,-25.879,0,0
1586465069,-73.242,-50.293,88.867,-57.617,0,0
1586465069,-57.617,-48.828,59.082,-57.129,0,0
1586465069,-55.176,-46.387,43.945,-5.371,0,0
1586465069,-75.684,-45.41,124.512,7.812,0,0
1586465069,-75.684,-40.527,4.883,-21.973,0,0
1586465069,-83.496,-37.598,-19.531,-49.316,0,0
1586465069,-86.914,-41.504,34.668,-22.949,0,0
1586465069,-79.59,-47.852,-238.281,0,0,0
1586465069,-78.613,-45.898,-90.82,-33.691,0,0
1586465069,-63.965,-40.039,2.93,-47.852,0,0
1586465069,-51.758,-38.574,53.711,-31.738,0,0
1586465069,-67.383,-42.969,119.629,-7.324,0,0
1586465069,-70.801,-49.805,-50.781,-9.277,0,0
1586465069,-67.871,-49.805,26.855,-46.875,0,0
1586465069,-59.57,-44.434,107.91,-29.785,0,0
1586465069,-59.082,-46.875,80.078,18.066,0,0
1586465069,-60.547,-51.758,13.184,3.418,0,0
1586465069,-61.035,-49.316,-249.023,-35.156,0,0
1586465070,-72.754,-44.434,-137.207,-23.926,0,0
1586465070,-64.453,-49.316,125,13.672,0,0
1586465070,-61.035,-52.246,101.074,16.602,0,0
1586465070,-69.336,-46.387,101.074,-29.297,0,0
1586465070,-70.312,-43.457,-87.891,-42.969,0,0
1586465070,-62.988,-39.062,-52.734,0,0,0
1586465070,-67.383,-41.992,97.656,19.043,0,0
1586465070,-79.102,-43.457,72.754,-10.742,0,0
1586465070,-82.031,-44.434,65.918,-41.992,0,0
1586465070,-69.824,-43.457,-87.402,-9.766,0,0
1586465070,-63.477,-36.621,-218.75,25.391,0,0
1586465070,-69.824,-36.621,-96.68,11.23,0,0
1586465070,-59.082,-33.691,62.988,-26.367,0,0
1586465070,-71.777,-33.691,90.332,-37.109,0,0
1586465070,-73.73,-40.039,-67.871,2.441,0,0
1586465070,-65.918,-41.016,-174.805,7.812,0,0
1586465070,-64.453,-37.598,51.27,-37.109,0,0
1586465070,-76.172,-39.062,145.996,-33.691,0,0
1586465070,-82.52,-39.551,175.293,2.441,0,0
1586465070,-82.031,-41.992,106.445,0,0,0
1586465070,-95.703,-48.34,99.121,-31.738,0,0
1586465070,-90.82,-43.457,77.148,-60.547,0,0
1586465070,-58.105,-39.062,10.742,-21.973,0,0
1586465070,-68.359,-38.574,90.82,-5.859,0,0
1586465070,-63.965,-39.551,-12.695,-41.504,0,0
1586465070,-40.527,-43.457,-311.035,-51.27,0,0
1586465070,-75.195,-41.504,0.977,-21.973,0,0
1586465070,-91.797,-35.156,206.055,0.488,0,0
1586465070,-92.773,-33.203,127.93,-37.598,0,0
1586465070,-76.172,-37.598,142.578,-62.988,0,0
1586465070,-67.871,-36.621,89.355,-44.434,0,0
1586465070,-53.711,-29.297,125.488,-12.695,0,0
1586465070,-32.227,-26.367,156.738,1.465,0,0
1586465070,-38.574,-23.438,149.414,-29.297,0,0
1586465070,-25.879,-20.508,46.387,-28.32,0,0
1586465070,-13.672,-18.066,-245.605,20.996,0,0
1586465070,-5.859,-9.277,-76.172,51.27,0,0
1586465070,6.348,-0.977,117.676,16.602,0,0
1586465070,9.277,1.953,134.766,-8.301,0,0
1586465070,20.02,0.977,147.461,41.992,0,0
1586465070,38.086,1.953,18.555,61.523,0,0
1586465070,30.273,4.883,92.285,37.598,0,0
1586465070,10.742,10.254,114.746,28.32,0,0
1586465070,57.129,18.555,165.039,32.715,0,0
1586465070,61.035,18.066,197.266,71.777,0,0
1586465070,40.039,14.648,-14.648,76.66,0,0
1586465070,63.965,14.648,-61.523,47.852,0,0
1586465070,70.801,19.043,0,63.477,0,0
1586465070,93.262,23.926,43.945,115.723,0,0
1586465070,104.004,22.461,120.117,130.859,0,0
1586465070,102.051,17.09,-114.746,100.586,0,0
1586465070,106.934,17.09,-161.621,96.68,0,0
1586465070,99.609,15.137,37.598,144.043,0,0
1586465070,112.305,16.602,115.234,173.34,0,0
1586465070,110.352,17.578,84.473,141.113,0,0
1586465070,105.957,8.301,-45.41,104.492,0,0
1586465070,121.094,6.348,25.391,151.367,0,0
1586465070,130.859,12.695,107.91,202.637,0,0
1586465070,140.625,7.812,-91.309,151.367,0,0
1586465070,126.465,5.371,-86.914,106.445,0,0
1586465070,118.652,3.418,-44.922,138.184,0,0
1586465070,136.23,-5.371,-255.859,179.199,0,0
1586465070,138.672,-10.742,-9.277,157.227,0,0
1586465070,128.906,-15.137,97.656,109.375,0,0
1586465070,123.535,-14.16,55.664,101.074,0,0
1586465070,118.164,-11.719,62.012,136.719,0,0
1586465070,108.887,-15.137,-11.719,136.23,0,0
1586465070,98.145,-20.508,-51.758,83.496,0,0
1586465070,66.406,-21.484,-1.465,55.176,0,0
1586465070,51.27,-21.973,11.719,80.566,0,0
1586465070,54.199,-25.879,-203.613,94.238,0,0
1586465070,41.992,-27.344,-292.969,47.363,0,0
1586465070,36.621,-24.414,-202.148,3.906,0,0
1586465070,34.18,-29.297,-62.5,36.133,0,0
1586465070,16.113,-37.598,28.809,54.688,0,0
1586465070,12.207,-40.039,-87.891,13.184,0,0
1586465070,6.836,-41.504,-441.895,-25.879,0,0
1586465070,7.324,-36.621,-190.43,-28.809,0,0
1586465070,-4.883,-37.109,41.504,0,0,0
1586465070,-24.902,-37.109,-58.105,5.859,0,0
1586465070,-32.227,-39.551,-68.848,-48.828,0,0
1586465070,-25.391,-44.434,-209.473,-56.152,0,0
1586465070,-4.883,-43.945,-227.051,-20.508,0,0
1586465070,-3.418,-49.805,-224.609,-20.996,0,0
1586465070,-19.531,-46.875,-145.02,-56.152,0,0
1586465070,-26.367,-46.875,13.184,-80.566,0,0
1586465070,-41.016,-58.594,-270.996,-56.152,0,0
1586465070,-65.918,-53.711,-225.586,-29.297,0,0
1586465070,-58.105,-48.34,4.883,-40.527,0,0
1586465070,-49.805,-52.246,-29.785,-91.309,0,0
1586465070,-66.895,-51.758,-1.465,-89.844,0,0
1586465070,-73.242,-55.176,-242.188,-51.27,0,0
1586465070,-57.617,-60.547,-250.977,-63.477,0,0
1586465070,-57.617,-62.988,-231.934,-97.168,0,0
1586465070,-48.828,-60.547,-308.105,-92.285,0,0
1586465070,-47.363,-60.547,-226.562,-47.852,0,0
1586465070,-67.871,-63.965,-294.434,-45.41,0,0
1586465070,-74.707,-72.266,-346.68,-90.332,0,0
1586465070,-79.102,-71.289,-223.633,-89.355,0,0
1586465070,-75.684,-69.824,-166.016,-38.574,0,0
1586465070,-71.289,-71.289,-40.039,-29.785,0,0
1586465070,-77.148,-66.406,-120.605,-82.031,0,0
1586465070,-58.594,-64.453,-195.312,-120.605,0,0
1586465070,-41.504,-61.035,-41.992,-76.66,0,0
1586465070,-50.781,-62.012,9.766,-34.668,0,0
1586465070,-74.219,-66.895,-32.227,-62.5,0,0
1586465070,-78.125,-70.312,-286.621,-103.027,0,0
1586465070,-45.41,-68.848,-347.168,-82.031,0,0
1586465070,-42.48,-63.477,-45.41,-44.922,0,0
1586465070,-69.824,-67.871,-18.066,-69.824,0,0
1586465070,-42.48,-73.242,-99.121,-108.887,0,0
1586465070,-35.156,-69.336,-202.148,-98.145,0,0
1586465070,-55.664,-75.195,-255.371,-50.293,0,0
1586465070,-41.016,-72.266,-127.93,-49.316,0,0
1586465070,-43.457,-67.871,-59.57,-106.445,0,0
1586465070,-48.34,-72.754,-59.082,-113.281,0,0
1586465070,-66.895,-73.242,-76.66,-71.289,0,0
1586465070,-87.402,-73.242,-217.285,-53.223,0,0
1586465070,-59.57,-69.824,-275.391,-72.266,0,0
1586465070,-56.152,-67.871,-302.246,-106.445,0,0
1586465070,-53.711,-69.336,-166.992,-76.66,0,0
1586465070,-32.715,-66.895,-68.359,-38.574,0,0
1586465070,-26.855,-72.754,-452.637,-52.246,0,0
1586465070,-18.066,-72.754,-331.543,-92.773,0,0
1586465070,-10.742,-66.406,-48.828,-84.961,0,0
1586465070,-14.648,-65.918,-22.461,-45.898,0,0
1586465070,-26.367,-64.941,-38.086,-57.617,0,0
1586465070,-18.066,-66.406,-337.891,-85.938,0,0
1586465070,-6.836,-67.383,-219.238,-87.891,0,0
1586465070,-26.367,-67.871,4.883,-52.246,0,0
1586465070,-25.391,-66.895,-176.758,-32.715,0,0
1586465070,-25.879,-73.73,-271.973,-75.684,0,0
1586465070,-26.855,-73.73,-419.434,-95.215,0,0
1586465070,-27.832,-66.895,-298.34,-54.199,0,0
1586465070,-28.32,-70.801,-39.551,-41.992,0,0
1586465070,-20.02,-75.684,-62.988,-81.543,0,0
1586465070,-22.949,-75.684,-148.438,-114.258,0,0
1586465070,-42.969,-79.102,-255.859,-68.359,0,0
1586465070,-30.273,-75.684,-93.75,-28.809,0,0
1586465070,-21.484,-73.73,-99.121,-52.734,0,0
1586465070,-28.809,-71.777,-205.078,-88.379,0,0
1586465070,-34.18,-72.754,-268.066,-71.289,0,0
1586465070,-29.785,-77.637,-370.605,-26.855,0,0
1586465070,-20.02,-80.566,-351.074,-41.992,0,0
1586465070,-39.551,-79.59,-392.09,-85.449,0,0
1586465070,-47.363,-76.66,-344.727,-87.402,0,0
1586465070,-47.852,-78.125,-223.633,-41.992,0,0
1586465070,-47.363,-81.055,-370.605,-23.438,0,0
1586465070,-36.621,-79.102,-524.414,-49.316,0,0
1586465070,-33.203,-69.824,-321.777,-91.309,0,0
1586465070,-45.41,-66.895,-190.918,-64.453,0,0
1586465070,-48.34,-71.777,-212.402,-41.016,0,0
1586465070,-21.484,-75.684,-291.504,-72.266,0,0
1586465070,-36.133,-75.195,-307.129,-91.797,0,0
1586465070,-67.383,-76.66,-285.645,-75.684,0,0
1586465070,-41.504,-76.66,-310.547,-44.922,0,0
1586465070,-20.508,-77.148,-260.742,-62.5,0,0
1586465070,-34.18,-83.496,-357.422,-92.285,0,0
1586465070,-47.852,-85.449,-606.934,-64.941,0,0
1586465070,-51.27,-83.984,-355.957,-29.785,0,0
1586465070,-25.391,-81.055,-197.754,-35.645,0,0
1586465070,-22.949,-80.078,-289.062,-60.547,0,0
1586465070,-41.016,-82.031,-328.613,-62.988,0,0
1586465070,-30.273,-80.078,-327.148,-35.645,0,0
1586465070,-7.324,-73.73,-258.301,-23.438,0,0
1586465070,-23.438,-75.684,-372.07,-60.059,0,0
1586465070,-41.016,-76.66,-448.73,-77.637,0,0
1586465070,-26.855,-78.125,-418.457,-38.574,0,0
1586465070,-25.391,-82.031,-583.984,-13.672,0,0
1586465070,-22.949,-77.148,-460.449,-45.41,0,0
1586465070,-20.508,-73.73,-313.477,-78.613,0,0
1586465070,-26.367,-74.707,-303.223,-63.965,0,0
1586465070,-24.414,-76.66,-290.039,-36.133,0,0
1586465070,-21.973,-75.684,-451.172,-44.922,0,0
1586465070,-23.926,-73.242,-373.535,-74.707,0,0
1586465070,-25.879,-73.242,-296.387,-74.219,0,0
1586465070,-29.785,-77.637,-320.312,-32.715,0,0
1586465070,-39.551,-80.566,-336.914,-21.973,0,0
1586465070,-41.992,-83.984,-467.773,-62.012,0,0
1586465070,-36.621,-79.59,-437.5,-71.289,0,0
1586465070,-37.109,-70.312,-304.199,-30.762,0,0
1586465070,-33.203,-69.824,-294.434,-8.301,0,0
1586465070,-28.809,-72.266,-346.68,-48.828,0,0
1586465070,-31.738,-75.684,-470.215,-79.102,0,0
1586465070,-42.969,-80.566,-405.273,-51.758,0,0
1586465070,-46.875,-83.008,-323.242,-28.809,0,0
1586465070,-46.387,-82.52,-349.609,-50.293,0,0
1586465070,-36.133,-76.66,-393.555,-80.078,0,0
1586465070,-28.32,-74.219,-468.75,-57.617,0,0
1586465070,-34.18,-72.266,-430.176,-21.973,0,0
1586465070,-31.738,-65.918,-445.801,-46.875,0,0
1586465070,-31.25,-66.406,-520.02,-84.961,0,0
1586465070,-30.762,-69.824,-452.637,-72.754,0,0
1586465070,-25.391,-68.359,-442.871,-36.621,0,0
1586465070,-20.996,-72.754,-625,-22.949,0,0
1586465070,-14.648,-67.383,-461.426,-65.918,0,0
1586465070,6.348,-61.523,-383.301,-72.754,0,0
1586465070,-19.043,-64.453,-384.766,-32.715,0,0
1586465070,-33.691,-63.477,-364.258,-41.504,0,0
1586465070,-11.23,-65.918,-395.996,-67.871,0,0
1586465070,-22.949,-68.359,-397.949,-90.332,0,0
1586465070,-35.645,-65.43,-412.109,-61.523,0,0
1586465070,-32.227,-73.242,-466.797,-25.879,0,0
1586465070,-30.762,-75.195,-502.93,-50.293,0,0
1586465070,-41.016,-74.707,-710.938,-70.801,0,0
1586465070,-43.945,-70.312,-529.297,-58.105,0,0
1586465070,-41.016,-64.453,-278.32,-23.926,0,0
1586465070,-32.227,-63.965,-314.453,-22.461,0,0
1586465070,-47.852,-66.406,-331.543,-71.777,0,0
1586465070,-39.062,-65.918,-460.449,-71.289,0,0
1586465070,-26.367,-63.477,-409.668,-26.855,0,0
1586465070,-43.457,-64.941,-318.848,-22.949,0,0
1586465070,-40.039,-63.477,-359.863,-51.27,0,0
1586465070,-35.156,-72.266,-441.406,-61.523,0,0
1586465070,-29.785,-82.52,-530.762,-31.25,0,0
1586465070,-22.461,-77.148,-479.004,-17.09,0,0
1586465070,-16.602,-73.242,-393.066,-41.992,0,0
1586465070,-27.344,-76.66,-374.023,-71.777,0,0
1586465070,-29.297,-77.148,-399.414,-50.781,0,0
1586465070,-36.621,-78.613,-517.09,-20.02,0,0
1586465070,-46.387,-75.195,-442.871,-34.668,0,0
1586465070,-36.621,-73.242,-319.824,-70.312,0,0
1586465070,-34.668,-74.707,-360.84,-55.664,0,0
1586465070,-41.992,-76.172,-323.242,-8.789,0,0
1586465070,-45.41,-81.543,-398.926,-18.555,0,0
1586465070,-43.945,-81.055,-413.086,-62.012,0,0
1586465070,-38.086,-81.055,-413.574,-69.336,0,0
1586465070,-33.691,-81.055,-446.777,-34.668,0,0
1586465070,-29.297,-76.66,-364.258,-14.16,0,0
1586465070,-27.344,-79.59,-432.129,-40.527,0,0
1586465070,-31.25,-81.055,-443.359,-68.848,0,0
1586465070,-22.949,-77.637,-303.711,-39.062,0,0
1586465070,-32.715,-79.59,-323.242,-1.953,0,0
1586465070,-14.16,-80.078,-410.156,-25.879,0,0
1586465070,-21.484,-78.613,-511.23,-64.941,0,0
1586465070,-49.316,-81.055,-452.637,-39.062,0,0
1586465070,-42.969,-80.078,-296.875,-4.883,0,0
1586465070,-37.109,-78.125,-426.27,-26.367,0,0
1586465070,-35.645,-79.59,-502.441,-67.383,0,0
1586465070,-23.926,-79.59,-491.699,-62.988,0,0
1586465070,-16.113,-82.52,-651.367,-20.996,0,0
1586465070,-22.461,-84.473,-440.43,-20.996,0,0
1586465070,-34.668,-83.008,-290.039,-54.199,0,0
1586465070,-43.457,-83.496,-358.887,-56.152,0,0
1586465070,-48.828,-82.52,-322.754,-24.902,0,0
1586465070,-62.5,-86.914,-293.945,-12.695,0,0
1586465070,-30.762,-84.961,-297.852,-45.898,0,0
1586465070,-9.277,-79.59,-350.098,-59.082,0,0
1586465070,-18.555,-80.566,-360.352,-29.297,0,0
1586465070,-14.16,-80.566,-387.695,-6.348,0,0
1586465070,-9.277,-81.055,-533.203,-32.715,0,0
1586465070,-6.836,-81.055,-429.688,-61.035,0,0
1586465070,-10.742,-77.148,-293.457,-52.246,0,0
1586465070,-22.461,-78.613,-306.152,-17.578,0,0
1586465070,-23.926,-82.031,-374.512,-21.484,0,0
1586465070,-21.484,-84.473,-612.793,-55.176,0,0
1586465071,-26.367,-79.102,-428.711,-48.828,0,0
1586465071,-28.809,-74.707,-259.766,-10.254,0,0
1586465071,-42.969,-81.055,-330.078,-2.93,0,0
1586465071,-27.344,-85.938,-336.426,-44.434,0,0
1586465071,-10.254,-86.914,-454.102,-67.383,0,0
1586465071,-20.02,-86.914,-416.504,-26.855,0,0
1586465071,-30.273,-88.379,-395.02,-3.906,0,0
1586465071,-22.461,-86.914,-453.125,-33.203,0,0
1586465071,-10.742,-80.566,-435.059,-55.664,0,0
1586465071,-7.324,-78.125,-488.281,-37.598,0,0
1586465071,-15.137,-81.055,-437.988,-10.254,0,0
1586465071,-20.996,-76.66,-324.219,-21.973,0,0
1586465071,-16.602,-71.289,-368.652,-50.293,0,0
1586465071,-23.926,-77.148,-342.773,-44.434,0,0
1586465071,-19.531,-82.031,-343.75,-9.766,0,0
1586465071,-16.602,-82.031,-330.078,2.93,0,0
1586465071,-11.719,-78.125,-360.352,-39.062,0,0
1586465071,-2.93,-79.102,-381.836,-54.199,0,0
1586465071,-21.973,-84.473,-370.605,-12.207,0,0
1586465071,-32.715,-79.59,-464.844,2.93,0,0
1586465071,-20.996,-77.148,-615.723,-16.602,0,0
1586465071,-22.461,-73.73,-406.738,-40.039,0,0
1586465071,-27.832,-75.684,-343.262,-15.137,0,0
1586465071,-24.902,-83.008,-464.844,0,0,0
1586465071,-16.602,-76.172,-434.57,-45.898,0,0
1586465071,-41.992,-71.289,-358.887,-60.547,0,0
1586465071,-27.832,-75.195,-336.426,-32.227,0,0
1586465071,-23.438,-75.195,-357.422,-1.465,0,0
1586465071,-47.363,-74.707,-338.379,-20.508,0,0
1586465071,-37.598,-71.777,-419.922,-58.105,0,0
1586465071,-30.762,-73.73,-455.078,-44.922,0,0
1586465071,-31.25,-77.148,-404.785,-6.836,0,0
1586465071,-32.715,-78.613,-446.289,-7.812,0,0
1586465071,-32.227,-76.172,-397.461,-54.199,0,0
1586465071,-37.109,-76.172,-346.191,-61.035,0,0
1586465071,-55.176,-85.938,-455.566,-10.254,0,0
1586465071,-54.199,-83.008,-334.961,5.371,0,0
1586465071,-45.41,-82.52,-347.656,-43.945,0,0
1586465071,-48.34,-85.449,-428.223,-62.988,0,0
1586465071,-31.738,-80.078,-323.73,-14.648,0,0
1586465071,-18.555,-80.078,-524.414,4.395,0,0
1586465071,-26.367,-79.59,-446.289,-34.668,0,0
1586465071,-54.688,-83.008,-461.426,-64.453,0,0
1586465071,-53.223,-83.496,-497.07,-38.574,0,0
1586465071,-44.434,-84.961,-327.148,-12.695,0,0
1586465071,-37.598,-89.355,-518.066,-14.648,0,0
1586465071,-31.738,-81.055,-445.312,-41.016,0,0
1586465071,-51.758,-77.148,-274.902,-50.781,0,0
1586465071,-57.617,-78.125,-286.133,-14.648,0,0
1586465071,-47.363,-78.613,-277.344,-19.531,0,0
1586465071,-43.945,-81.055,-426.27,-80.078,0,0
1586465071,-56.152,-80.566,-381.836,-92.773,0,0
1586465071,-60.059,-81.055,-325.195,-46.387,0,0
1586465071,-62.5,-81.055,-373.047,-33.203,0,0
1586465071,-62.5,-82.031,-382.812,-68.848,0,0
1586465071,-61.035,-83.984,-498.047,-77.637,0,0
1586465071,-53.711,-78.125,-438.965,-38.086,0,0
1586465071,-36.621,-70.801,-309.57,-9.277,0,0
1586465071,-44.434,-77.148,-337.891,-31.738,0,0
1586465071,-54.199,-81.543,-354.004,-69.336,0,0
1586465071,-62.012,-79.59,-436.523,-51.758,0,0
1586465071,-45.898,-80.078,-377.93,-17.09,0,0
1586465071,-43.457,-73.73,-338.867,-18.555,0,0
1586465071,-74.707,-69.824,-354.98,-51.27,0,0
1586465071,-66.895,-71.289,-319.336,-54.688,0,0
1586465071,-49.805,-73.73,-386.23,-14.16,0,0
1586465071,-50.293,-71.289,-442.871,-10.254,0,0
1586465071,-58.594,-69.336,-439.941,-47.852,0,0
1586465071,-58.105,-67.871,-481.445,-55.664,0,0
1586465071,-45.41,-63.965,-335.449,-22.461,0,0
1586465071,-31.25,-62.5,-333.008,-6.348,0,0
1586465071,-40.527,-64.941,-622.559,-31.738,0,0
1586465071,-48.828,-61.523,-460.449,-57.617,0,0
1586465071,-40.039,-60.547,-302.246,-36.133,0,0
1586465071,-43.457,-64.941,-327.637,3.418,0,0
1586465071,-48.34,-64.453,-341.309,-10.254,0,0
1586465071,-47.852,-63.965,-383.789,-55.176,0,0
1586465071,-38.574,-62.988,-437.5,-47.363,0,0
1586465071,-43.457,-61.035,-433.105,-5.859,0,0
1586465071,-32.715,-63.477,-418.457,-18.066,0,0
1586465071,-32.227,-67.871,-472.656,-50.293,0,0
1586465071,-47.852,-64.453,-596.68,-38.086,0,0
1586465071,-53.711,-60.059,-434.082,5.371,0,0
1586465071,-55.664,-58.594,-312.012,12.207,0,0
1586465071,-45.898,-53.711,-357.91,-31.25,0,0
1586465071,-53.711,-58.594,-368.652,-52.734,0,0
1586465071,-67.383,-63.477,-481.445,-27.832,0,0
1586465071,-57.129,-57.617,-347.656,-6.348,0,0
1586465071,-52.734,-62.012,-287.109,-31.738,0,0
1586465071,-61.523,-70.312,-358.398,-65.918,0,0
1586465071,-53.711,-71.777,-370.605,-41.504,0,0
1586465071,-49.316,-72.266,-489.746,-4.395,0,0
1586465071,-50.781,-68.359,-440.43,-19.531,0,0
1586465071,-53.711,-62.988,-304.199,-53.223,0,0
1586465071,-61.523,-60.059,-327.148,-41.992,0,0
1586465071,-68.848,-61.523,-295.898,-1.465,0,0
1586465071,-55.176,-62.012,-325.195,10.742,0,0
1586465071,-33.203,-62.012,-373.535,-31.25,0,0
1586465071,-33.691,-66.406,-405.762,-52.734,0,0
1586465071,-49.805,-68.359,-314.453,-21.973,0,0
1586465071,-79.59,-69.824,-264.16,-8.301,0,0
1586465071,-88.379,-73.242,-397.461,-37.598,0,0
1586465071,-65.43,-71.289,-486.328,-46.875,0,0
1586465071,-77.637,-64.941,-448.242,-23.926,0,0
1586465071,-80.078,-67.871,-337.402,-5.859,0,0
1586465071,-56.641,-72.266,-270.996,-26.855,0,0
1586465071,-50.781,-72.754,-416.992,-61.523,0,0
1586465071,-58.594,-83.008,-625.977,-41.992,0,0
1586465071,-47.852,-80.078,-363.281,-3.418,0,0
1586465071,-29.297,-75.684,-244.141,-6.836,0,0
1586465071,-41.504,-78.125,-344.238,-42.969,0,0
1586465071,-57.129,-80.566,-355.469,-36.621,0,0
1586465071,-56.152,-81.543,-342.773,9.277,0,0
1586465071,-69.336,-83.496,-338.867,5.371,0,0
1586465071,-70.801,-81.055,-454.102,-41.016,0,0
1586465071,-60.059,-75.195,-419.922,-52.734,0,0
1586465071,-55.664,-75.684,-338.867,-16.602,0,0
1586465071,-50.781,-80.566,-537.109,12.207,0,0
1586465071,-78.613,-77.637,-416.992,-27.344,0,0
1586465071,-87.402,-77.637,-288.086,-58.105,0,0
1586465071,-59.082,-84.961,-326.172,-32.227,0,0
1586465071,-48.34,-84.961,-306.641,-1.953,0,0
1586465071,-62.012,-84.473,-379.395,-20.02,0,0
1586465071,-48.828,-81.543,-380.859,-54.688,0,0
1586465071,-47.363,-80.078,-350.586,-24.902,0,0
1586465071,-61.035,-86.914,-332.031,21.973,0,0
1586465071,-43.457,-92.285,-407.715,5.371,0,0
1586465071,-41.504,-92.773,-654.785,-35.156,0,0
1586465071,-50.293,-87.891,-529.785,-28.32,0,0
1586465071,-33.203,-85.449,-340.82,8.789,0,0
1586465071,-29.785,-85.938,-322.266,8.301,0,0
1586465071,-44.434,-84.473,-342.773,-29.297,0,0
1586465071,-27.832,-90.332,-469.727,-36.133,0,0
1586465071,-21.973,-88.379,-347.656,1.465,0,0
1586465071,-35.156,-86.914,-260.254,32.227,0,0
1586465071,-40.527,-90.82,-367.676,-19.531,0,0
1586465071,-40.527,-92.773,-359.375,-52.734,0,0
1586465071,-39.551,-89.844,-395.508,-15.137,0,0
1586465071,-40.527,-85.938,-450.684,5.371,0,0
1586465071,-33.691,-88.867,-423.34,-15.625,0,0
1586465071,-43.457,-90.332,-379.883,-48.828,0,0
1586465071,-44.434,-86.914,-312.988,-31.25,0,0
1586465071,-38.086,-86.426,-409.668,14.648,0,0
1586465071,-39.062,-86.914,-562.988,8.789,0,0
1586465071,-25.391,-83.496,-460.938,-40.527,0,0
1586465071,-39.062,-84.473,-287.598,-46.875,0,0
1586465071,-61.523,-86.426,-242.188,-1.465,0,0
1586465071,-43.457,-87.891,-355.957,8.789,0,0
1586465071,-45.898,-86.426,-403.32,-42.969,0,0
1586465071,-52.734,-79.59,-415.039,-59.082,0,0
1586465071,-42.48,-80.566,-439.941,-6.348,0,0
1586465071,-41.016,-84.473,-386.23,3.418,0,0
1586465071,-27.344,-81.543,-457.52,-29.785,0,0
1586465071,-41.016,-85.938,-656.25,-46.875,0,0
1586465071,-62.988,-86.426,-420.41,-28.32,0,0
1586465071,-47.363,-86.426,-254.883,-0.977,0,0
1586465071,-38.086,-89.355,-314.453,-19.043,0,0
1586465071,-48.34,-93.75,-367.676,-58.594,0,0
1586465071,-47.852,-92.285,-387.207,-52.246,0,0
1586465071,-46.387,-84.961,-361.328,-12.695,0,0
1586465071,-37.598,-81.543,-336.426,-15.625,0,0
1586465071,-35.156,-83.008,-325.684,-59.57,0,0
1586465071,-45.41,-83.008,-431.152,-62.988,0,0
1586465071,-54.199,-83.984,-616.699,-8.301,0,0
1586465071,-50.781,-82.031,-379.395,3.906,0,0
1586465071,-34.18,-73.242,-258.301,-37.598,0,0
1586465071,-49.316,-76.172,-359.863,-51.758,0,0
1586465071,-47.852,-81.543,-330.078,-9.277,0,0
1586465071,-30.762,-80.078,-431.152,16.113,0,0
1586465071,-39.062,-79.59,-358.398,-32.227,0,0
1586465071,-50.293,-79.59,-316.895,-68.359,0,0
1586465071,-44.922,-78.125,-333.984,-38.574,0,0
1586465071,-43.457,-79.59,-301.27,0.977,0,0
1586465071,-54.688,-79.102,-437.5,-6.348,0,0
1586465071,-69.824,-76.66,-468.262,-50.293,0,0
1586465071,-74.707,-74.219,-424.805,-51.27,0,0
1586465071,-73.242,-68.848,-407.715,-7.324,0,0
1586465071,-70.312,-64.453,-283.203,-6.836,0,0
1586465071,-62.988,-69.824,-450.684,-33.203,0,0
1586465071,-57.617,-69.824,-477.051,-48.828,0,0
1586465071,-20.02,-64.941,-288.574,-18.555,0,0
1586465071,-25.391,-66.895,-308.594,9.766,0,0
1586465071,-49.805,-70.801,-342.285,-18.066,0,0
1586465071,-47.852,-73.242,-419.922,-40.527,0,0
1586465071,-54.688,-72.754,-343.262,-45.41,0,0
1586465071,-56.152,-71.289,-314.453,-31.25,0,0
1586465071,-63.965,-70.312,-449.707,-58.105,0,0
1586465071,-80.566,-65.43,-388.672,-100.586,0,0
1586465071,-80.566,-66.406,-438.477,-70.801,0,0
1586465071,-49.805,-70.801,-579.59,-13.184,0,0
1586465071,-44.434,-65.43,-397.949,-30.273,0,0
1586465071,-50.293,-64.453,-351.562,-73.73,0,0
1586465071,-34.668,-66.895,-325.684,-66.406,0,0
1586465071,-29.297,-68.359,-305.664,-22.949,0,0
1586465071,-36.133,-68.848,-332.52,-9.766,0,0
1586465071,-52.734,-68.848,-316.406,-52.734,0,0
1586465071,-44.434,-67.383,-328.125,-82.52,0,0
1586465071,-34.668,-65.918,-325.195,-39.062,0,0
1586465071,-45.41,-70.801,-418.457,-13.672,0,0
1586465071,-39.551,-73.242,-462.891,-39.551,0,0
1586465071,-30.273,-64.453,-443.359,-57.617,0,0
1586465071,-33.691,-63.965,-396.484,-33.203,0,0
1586465071,-51.758,-62.5,-288.086,-4.883,0,0
1586465071,-51.27,-65.43,-364.258,-34.18,0,0
1586465071,-43.945,-73.242,-634.277,-61.523,0,0
1586465071,-66.895,-65.918,-472.168,-54.199,0,0
1586465071,-57.129,-65.918,-299.805,-33.691,0,0
1586465071,-50.293,-71.289,-347.168,-42.48,0,0
1586465071,-56.152,-71.777,-393.555,-75.195,0,0
1586465071,-55.664,-69.336,-501.465,-60.547,0,0
1586465071,-52.734,-65.918,-440.918,-28.32,0,0
1586465071,-46.875,-65.43,-339.355,-12.695,0,0
1586465071,-42.969,-64.941,-362.305,-41.016,0,0
1586465071,-47.363,-65.918,-391.602,-78.125,0,0
1586465071,-42.48,-69.824,-549.805,-40.527,0,0
1586465071,-44.922,-71.777,-456.055,-13.672,0,0
1586465071,-57.617,-62.5,-328.125,-31.738,0,0
1586465071,-41.992,-54.688,-353.516,-50.293,0,0
1586465071,-40.039,-56.641,-335.938,-32.227,0,0
1586465071,-61.035,-59.57,-396.484,1.465,0,0
1586465071,-68.359,-59.57,-338.867,-22.461,0,0
1586465071,-70.312,-58.594,-407.227,-65.43,0,0
1586465071,-65.43,-56.152,-441.406,-37.598,0,0
1586465071,-59.57,-53.223,-376.953,-0.488,0,0
1586465071,-61.035,-56.152,-463.379,-12.207,0,0
1586465071,-62.5,-62.5,-464.355,-38.574,0,0
1586465071,-37.109,-61.523,-333.496,-53.711,0,0
1586465071,-66.895,-61.035,-266.602,-36.621,0,0
1586465071,-86.914,-66.406,-281.25,-3.906,0,0
1586465071,-55.664,-63.965,-399.902,-22.949,0,0
1586465071,-54.688,-59.082,-380.371,-54.688,0,0
1586465071,-57.617,-58.594,-302.734,-16.113,0,0
1586465071,-58.594,-57.129,-279.785,4.395,0,0
1586465071,-58.105,-54.688,-311.523,-34.668,0,0
1586465071,-72.754,-52.734,-500.488,-44.434,0,0
1586465071,-63.965,-52.734,-580.566,-4.395,0,0
1586465071,-52.734,-55.664,-381.836,12.695,0,0
1586465071,-61.523,-56.152,-327.148,-7.324,0,0
1586465071,-63.477,-54.688,-312.012,-27.832,0,0
1586465071,-61.523,-58.594,-366.699,-28.809,0,0
1586465071,-55.176,-56.152,-362.793,7.324,0,0
1586465071,-53.711,-49.805,-300.781,21.973,0,0
1586465071,-75.684,-46.875,-345.703,-29.785,0,0
1586465071,-70.312,-47.363,-363.77,-40.527,0,0
1586465071,-58.594,-45.41,-374.023,8.301,0,0
1586465071,-64.941,-50.781,-354.492,15.625,0,0
1586465071,-81.543,-59.082,-402.832,-12.695,0,0
1586465071,-77.637,-56.152,-506.836,-25.391,0,0
1586465071,-80.078,-56.152,-458.984,-15.137,0,0
1586465071,-121.094,-59.57,-375.488,-29.297,0,0
1586465071,-145.02,-70.312,-609.863,-75.684,0,0
1586465071,-160.156,-75.684,-498.047,-108.887,0,0
1586465071,-170.41,-76.66,-345.703,-105.469,0,0
1586465071,-180.664,-79.102,-342.773,-93.262,0,0
1586465071,-216.797,-86.914,-347.168,-125,0,0
1586465071,-249.023,-92.773,-518.555,-187.5,0,0
1586465072,-293.457,-95.703,-417.969,-212.402,0,0
1586465072,-317.383,-102.539,-314.453,-193.359,0,0
1586465072,-323.242,-99.121,-412.598,-197.754,0,0
1586465072,-351.074,-103.027,-413.574,-263.184,0,0
1586465072,-386.23,-109.863,-483.398,-284.668,0,0
1586465072,-415.039,-104.004,-398.438,-266.602,0,0
1586465072,-427.246,-96.191,-267.09,-292.48,0,0
1586465072,-459.961,-100.098,-364.258,-342.285,0,0
1586465072,-479.492,-106.445,-401.855,-391.602,0,0
1586465072,-468.262,-111.328,-440.918,-375.488,0,0
1586465072,-472.168,-111.328,-365.234,-337.891,0,0
1586465072,-482.422,-108.398,-307.617,-380.371,0,0
1586465072,-473.633,-110.84,-376.953,-415.527,0,0
1586465072,-458.008,-116.211,-414.062,-385.742,0,0
1586465072,-451.172,-122.07,-407.715,-344.238,0,0
1586465072,-432.129,-120.117,-454.59,-328.125,0,0
1586465072,-417.969,-120.605,-413.086,-358.887,0,0
1586465072,-415.527,-129.883,-375,-365.234,0,0
1586465072,-391.113,-133.789,-327.637,-298.34,0,0
1586465072,-366.699,-139.648,-414.551,-274.414,0,0
1586465072,-351.562,-142.578,-643.555,-304.199,0,0
1586465072,-336.914,-141.602,-440.918,-301.758,0,0
1586465072,-335.449,-145.02,-328.125,-247.559,0,0
1586465072,-318.359,-144.531,-404.785,-208.984,0,0
1586465072,-265.137,-139.16,-462.891,-220.215,0,0
1586465072,-227.051,-141.113,-442.871,-228.027,0,0
1586465072,-230.957,-148.438,-417.48,-191.895,0,0
1586465072,-226.562,-144.043,-448.242,-141.113,0,0
1586465072,-208.496,-144.043,-355.469,-140.137,0,0
1586465072,-189.941,-143.066,-402.344,-166.016,0,0
1586465072,-172.363,-141.602,-634.277,-150.879,0,0
1586465072,-152.344,-139.16,-416.992,-89.844,0,0
1586465072,-133.789,-137.695,-273.438,-83.008,0,0
1586465072,-101.074,-138.184,-391.113,-118.164,0,0
1586465072,-84.473,-142.578,-359.863,-103.027,0,0
1586465072,-102.051,-141.113,-329.59,-44.434,0,0
1586465072,-101.074,-135.254,-291.992,-24.902,0,0
1586465072,-81.055,-130.371,-435.547,-48.34,0,0
1586465072,-61.035,-128.906,-500.977,-49.805,0,0
1586465072,-35.645,-128.906,-407.227,3.418,0,0
1586465072,-33.203,-129.395,-545.898,34.668,0,0
1586465072,-29.785,-124.023,-425.781,7.324,0,0
1586465072,-21.484,-121.094,-301.758,-10.742,0,0
1586465072,-11.23,-124.023,-347.168,10.742,0,0
1586465072,6.836,-123.535,-286.621,35.645,0,0
1586465072,12.207,-123.047,-499.512,29.297,0,0
1586465072,25.391,-116.211,-478.516,11.23,0,0
1586465072,33.691,-108.398,-290.039,41.992,0,0
1586465072,39.062,-106.445,-314.941,81.055,0,0
1586465072,39.551,-104.004,-314.941,71.289,0,0
1586465072,29.297,-100.586,-468.75,36.621,0,0
1586465072,43.457,-96.191,-492.676,23.926,0,0
1586465072,68.359,-91.309,-296.387,43.457,0,0
1586465072,69.336,-84.961,-272.461,69.336,0,0
1586465072,65.43,-86.426,-357.422,44.434,0,0
1586465072,77.148,-84.473,-412.109,27.832,0,0
1586465072,66.406,-76.66,-351.562,61.035,0,0
1586465072,64.453,-76.172,-255.371,84.473,0,0
1586465072,75.684,-77.637,-307.129,72.266,0,0
1586465072,70.801,-76.172,-313.965,43.457,0,0
1586465072,53.711,-80.078,-356.445,53.711,0,0
1586465072,52.734,-76.172,-356.934,64.941,0,0
1586465072,78.613,-68.848,-325.684,41.992,0,0
1586465072,80.566,-68.848,-421.387,17.09,0,0
1586465072,57.617,-68.359,-369.629,18.066,0,0
1586465072,56.152,-66.895,-275.879,63.965,0,0
1586465072,60.547,-66.895,-495.117,82.52,0,0
1586465072,60.059,-64.453,-367.676,37.109,0,0
1586465072,67.383,-63.965,-256.348,19.531,0,0
1586465072,77.637,-62.012,-359.863,39.062,0,0
1586465072,81.055,-56.641,-357.91,53.223,0,0
1586465072,81.543,-55.664,-290.527,31.738,0,0
1586465072,71.289,-58.594,-258.301,4.395,0,0
1586465072,76.66,-57.617,-304.688,46.387,0,0
1586465072,86.426,-52.734,-304.688,92.773,0,0
1586465072,71.289,-51.758,-365.723,54.199,0,0
1586465072,70.312,-56.152,-549.805,22.461,0,0
1586465072,83.496,-51.758,-350.586,41.504,0,0
1586465072,82.031,-49.316,-187.012,73.73,0,0
1586465072,70.312,-52.246,-230.957,47.852,0,0
1586465072,61.523,-56.152,-293.457,10.254,0,0
1586465072,68.359,-58.594,-431.152,43.457,0,0
1586465072,64.941,-53.711,-279.785,50.781,0,0
1586465072,48.828,-54.199,-217.773,38.574,0,0
1586465072,45.41,-58.105,-349.609,19.043,0,0
1586465072,42.48,-60.059,-371.094,3.418,0,0
1586465072,38.086,-58.105,-426.758,32.715,0,0
1586465072,41.992,-51.758,-400.391,48.828,0,0
1586465072,58.105,-46.875,-337.402,34.18,0,0
1586465072,73.73,-37.598,-319.824,8.301,0,0
1586465072,60.059,-30.762,-257.812,11.719,0,0
1586465072,65.918,-32.715,-362.305,40.039,0,0
1586465072,78.125,-29.785,-365.234,24.902,0,0
1586465072,67.383,-25.879,-298.34,-10.742,0,0
1586465072,85.938,-24.414,-316.895,13.184,0,0
1586465072,72.266,-20.508,-271.484,38.574,0,0
1586465072,57.129,-21.484,-310.547,25.391,0,0
1586465072,66.895,-20.02,-326.172,1.953,0,0
1586465072,69.824,-18.066,-390.137,0,0,0
1586465072,67.871,-22.461,-399.414,24.414,0,0
1586465072,60.547,-24.902,-336.914,38.574,0,0
1586465072,53.711,-26.855,-423.34,4.395,0,0
1586465072,48.34,-30.762,-538.086,-13.184,0,0
1586465072,52.246,-27.832,-334.473,14.16,0,0
1586465072,65.918,-24.902,-230.469,29.297,0,0
1586465072,57.617,-24.414,-290.527,9.277,0,0
1586465072,45.898,-28.809,-384.766,-16.113,0,0
1586465072,46.387,-31.25,-313.965,-15.137,0,0
1586465072,46.387,-32.227,-241.699,5.371,0,0
1586465072,49.316,-36.133,-372.07,4.883,0,0
1586465072,50.781,-35.645,-417.48,-25.879,0,0
1586465072,44.434,-35.156,-423.34,-15.625,0,0
1586465072,31.25,-30.273,-367.188,20.996,0,0
1586465072,34.18,-25.879,-272.461,22.949,0,0
1586465072,41.504,-29.785,-365.723,-7.324,0,0
1586465072,39.551,-28.809,-400.879,-21.973,0,0
1586465072,37.598,-26.367,-331.543,12.207,0,0
1586465072,25.391,-27.344,-506.348,36.621,0,0
1586465072,25.391,-23.926,-384.766,1.953,0,0
1586465072,17.09,-30.762,-276.367,-12.695,0,0
1586465072,17.578,-37.598,-258.789,14.648,0,0
1586465072,28.809,-39.062,-277.344,6.836,0,0
1586465072,24.414,-38.086,-498.047,-20.508,0,0
1586465072,26.367,-32.715,-397.949,-41.504,0,0
1586465072,44.434,-29.297,-269.043,-20.508,0,0
1586465072,30.762,-32.227,-263.184,24.414,0,0
1586465072,18.555,-36.133,-260.254,18.066,0,0
1586465072,16.113,-37.598,-497.559,-29.785,0,0
1586465072,14.16,-43.457,-405.273,-29.297,0,0
1586465072,23.438,-43.945,-285.156,8.789,0,0
1586465072,23.438,-36.621,-354.004,0,0,0
1586465072,13.184,-37.598,-333.008,-41.016,0,0
1586465072,11.23,-35.156,-421.387,-46.387,0,0
1586465072,17.578,-33.691,-361.816,-6.348,0,0
1586465072,8.789,-35.156,-375.977,9.766,0,0
1586465072,3.418,-35.156,-416.016,-15.625,0,0
1586465072,-2.441,-35.645,-389.16,-29.297,0,0
1586465072,-19.531,-38.574,-402.832,-21.484,0,0
1586465072,-5.859,-43.457,-308.105,-5.371,0,0
1586465072,-6.836,-47.363,-269.531,-14.648,0,0
1586465072,-29.785,-48.828,-291.504,-28.809,0,0
1586465072,-35.645,-47.852,-270.508,-28.32,0,0
1586465072,-34.668,-51.758,-339.355,5.371,0,0
1586465072,-24.414,-46.875,-321.289,5.371,0,0
1586465072,-22.461,-40.527,-341.797,-37.598,0,0
1586465072,-15.625,-41.504,-425.293,-31.738,0,0
1586465072,-21.973,-41.504,-393.555,-5.859,0,0
1586465072,-49.316,-48.828,-423.34,1.953,0,0
1586465072,-48.34,-46.387,-579.102,-10.742,0,0
1586465072,-50.293,-38.574,-387.207,-28.32,0,0
1586465072,-53.711,-37.598,-255.371,-4.395,0,0
1586465072,-44.434,-39.062,-282.227,1.953,0,0
1586465072,-53.711,-45.898,-355.957,-26.855,0,0
1586465072,-68.359,-50.781,-391.113,-50.293,0,0
1586465072,-51.27,-51.27,-324.707,-24.902,0,0
1586465072,-58.594,-48.828,-305.176,-6.348,0,0
1586465072,-70.801,-45.41,-297.363,-41.992,0,0
1586465072,-62.012,-48.34,-420.898,-49.805,0,0
1586465072,-46.875,-53.711,-485.352,-9.766,0,0
1586465072,-46.387,-50.293,-376.465,9.277,0,0
1586465072,-51.27,-44.434,-356.934,-10.742,0,0
1586465072,-51.27,-44.922,-376.465,-40.039,0,0
1586465072,-50.781,-51.27,-323.73,-32.227,0,0
1586465072,-47.363,-52.246,-503.906,0.488,0,0
1586465072,-48.34,-44.434,-406.738,-5.859,0,0
1586465072,-55.664,-42.969,-267.09,-34.18,0,0
1586465072,-56.152,-45.898,-312.5,-41.504,0,0
1586465072,-53.223,-43.457,-318.848,-14.16,0,0
1586465072,-41.504,-44.922,-397.949,12.695,0,0
1586465072,-32.715,-46.387,-362.305,5.859,0,0
1586465072,-38.086,-48.828,-408.691,-26.367,0,0
1586465072,-25.391,-47.852,-432.129,-11.23,0,0
1586465072,-14.16,-42.48,-268.555,15.625,0,0
1586465072,-8.789,-40.527,-416.992,-8.301,0,0
1586465072,-37.109,-43.457,-448.73,-37.109,0,0
1586465072,-44.922,-41.992,-321.777,-33.203,0,0
1586465072,-32.227,-42.969,-308.594,-12.695,0,0
1586465072,-23.926,-40.039,-297.363,-11.719,0,0
1586465072,-17.09,-37.598,-404.785,-28.809,0,0
1586465072,-34.18,-39.551,-369.629,-0.488,0,0
1586465072,-48.34,-41.016,-254.395,9.766,0,0
1586465072,-41.992,-41.992,-342.285,2.93,0,0
1586465072,-32.715,-41.992,-408.691,-13.672,0,0
1586465072,-18.555,-37.598,-458.008,-26.855,0,0
1586465072,-23.438,-41.504,-543.945,23.926,0,0
1586465072,-22.461,-42.969,-332.52,24.414,0,0
1586465072,-14.16,-38.086,-250.977,-8.301,0,0
1586465072,-13.672,-38.086,-306.641,-25.391,0,0
1586465072,-13.184,-44.922,-374.512,-14.16,0,0
1586465072,-18.555,-48.34,-365.234,17.578,0,0
1586465072,-48.828,-48.828,-346.191,9.277,0,0
1586465072,-53.711,-46.875,-337.891,-18.066,0,0
1586465072,-48.34,-43.457,-261.23,-22.461,0,0
1586465072,-53.711,-44.922,-306.152,-0.977,0,0
1586465072,-52.246,-47.363,-427.734,9.766,0,0
1586465072,-50.781,-46.875,-359.863,-22.461,0,0
1586465072,-49.316,-47.852,-333.008,-38.086,0,0
1586465072,-40.527,-46.387,-281.25,3.418,0,0
1586465072,-41.504,-46.875,-306.641,21.484,0,0
1586465072,-56.152,-48.34,-549.316,-12.695,0,0
1586465072,-55.664,-44.434,-419.434,-38.574,0,0
1586465072,-53.711,-48.828,-281.25,-13.672,0,0
1586465072,-57.129,-49.316,-305.176,-8.301,0,0
1586465072,-50.293,-48.828,-342.285,-21.973,0,0
1586465072,-49.805,-52.734,-379.883,-16.602,0,0
1586465072,-53.223,-53.711,-368.164,-18.555,0,0
1586465072,-53.711,-53.223,-385.254,-3.418,0,0
1586465072,-44.922,-51.27,-399.414,2.441,0,0
1586465072,-51.758,-53.711,-453.613,-23.926,0,0
1586465072,-72.754,-56.152,-596.68,-20.508,0,0
1586465072,-62.5,-51.27,-399.902,0.977,0,0
1586465072,-59.57,-47.852,-267.09,3.906,0,0
1586465072,-61.035,-44.922,-331.543,-31.738,0,0
1586465072,-46.387,-41.016,-298.828,-20.508,0,0
1586465072,-48.34,-41.016,-415.527,20.996,0,0
1586465072,-54.199,-41.992,-334.473,19.531,0,0
1586465072,-53.711,-45.898,-269.531,-7.324,0,0
1586465072,-67.871,-48.34,-364.746,-38.574,0,0
1586465072,-67.383,-51.758,-379.883,-29.297,0,0
1586465072,-59.57,-53.711,-416.016,-5.371,0,0
1586465072,-61.523,-48.34,-446.777,-11.23,0,0
1586465072,-55.176,-43.945,-355.957,-31.25,0,0
1586465072,-46.875,-46.387,-316.895,-19.531,0,0
1586465072,-59.57,-43.945,-294.922,4.883,0,0
1586465072,-62.5,-41.992,-359.375,4.883,0,0
1586465072,-58.594,-44.922,-381.348,-12.207,0,0
1586465072,-62.012,-47.363,-360.84,-24.902,0,0
1586465072,-51.27,-43.945,-317.383,4.883,0,0
1586465072,-47.852,-41.992,-284.668,31.25,0,0
1586465072,-62.012,-41.016,-420.898,-3.906,0,0
1586465072,-47.852,-38.574,-476.562,-30.273,0,0
1586465072,-39.551,-41.016,-389.16,-3.906,0,0
1586465072,-52.246,-37.109,-301.758,18.066,0,0
1586465072,-44.922,-35.156,-261.23,-13.184,0,0
1586465072,-47.363,-35.645,-374.023,-36.621,0,0
1586465072,-61.523,-41.504,-599.609,-14.16,0,0
1586465072,-48.828,-37.109,-361.328,1.953,0,0
1586465072,-41.504,-37.598,-245.605,-20.02,0,0
1586465072,-45.41,-43.457,-313.477,-40.039,0,0
1586465072,-39.062,-43.945,-335.449,-25.879,0,0
1586465072,-38.574,-50.781,-320.801,0.488,0,0
1586465072,-38.086,-47.363,-263.184,1.465,0,0
1586465072,-46.387,-48.828,-405.762,-18.555,0,0
1586465072,-37.109,-48.828,-400.879,-39.062,0,0
1586465072,-25.391,-45.898,-310.547,-10.742,0,0
1586465072,-25.879,-49.316,-548.34,15.137,0,0
1586465072,-26.855,-43.457,-445.801,-26.367,0,0
1586465072,-29.297,-41.992,-289.551,-42.48,0,0
1586465072,-32.715,-47.852,-288.574,-6.836,0,0
1586465072,-32.227,-46.875,-280.762,-3.418,0,0
1586465072,-21.484,-49.805,-483.887,-13.672,0,0
1586465072,-19.531,-46.387,-454.59,-15.625,0,0
1586465072,-26.855,-43.945,-281.25,-29.297,0,0
1586465072,-20.508,-43.945,-260.254,-2.441,0,0
1586465072,-8.301,-44.434,-371.582,17.09,0,0
1586465072,-20.02,-46.387,-584.961,-24.902,0,0
1586465073,-17.578,-41.504,-435.059,-33.691,0,0
1586465073,-7.324,-39.551,-223.145,4.883,0,0
1586465073,-28.809,-44.434,-272.949,2.93,0,0
1586465073,-44.434,-49.316,-294.922,-26.367,0,0
1586465073,-43.945,-49.805,-424.805,-31.25,0,0
1586465073,-45.41,-49.316,-367.188,-3.418,0,0
1586465073,-42.48,-45.41,-243.164,12.695,0,0
1586465073,-30.273,-43.457,-308.594,-10.742,0,0
1586465073,-26.367,-44.434,-312.988,-35.156,0,0
1586465073,-33.691,-46.387,-368.164,-14.648,0,0
1586465073,-35.156,-47.363,-382.324,20.996,0,0
1586465073,-31.25,-42.969,-386.719,6.836,0,0
1586465073,-20.996,-40.527,-403.32,-43.945,0,0
1586465073,-10.254,-39.551,-285.645,-48.34,0,0
1586465073,-11.719,-41.504,-402.344,-9.277,0,0
1586465073,-11.23,-40.039,-521.973,-10.254,0,0
1586465073,-20.02,-34.668,-303.711,-30.762,0,0
1586465073,-36.133,-40.527,-246.582,-20.996,0,0
1586465073,-27.832,-45.898,-272.949,5.371,0,0
1586465073,-24.902,-48.828,-327.637,2.93,0,0
1586465073,-23.926,-41.016,-316.406,-27.832,0,0
1586465073,-13.672,-38.086,-330.566,-41.992,0,0
1586465073,-15.137,-44.922,-419.434,-16.602,0,0
1586465073,-23.438,-46.387,-408.203,15.137,0,0
1586465073,-35.645,-50.293,-469.238,-20.996,0,0
1586465073,-38.086,-51.27,-627.441,-47.363,0,0
1586465073,-27.832,-45.898,-421.875,-23.438,0,0
1586465073,-30.273,-43.457,-268.555,0,0,0
1586465073,-41.992,-45.41,-287.598,-19.043,0,0
1586465073,-39.062,-49.316,-365.723,-41.504,0,0
1586465073,-25.879,-47.852,-377.93,-28.32,0,0
1586465073,-26.855,-44.922,-301.27,-4.395,0,0
1586465073,-29.297,-44.434,-328.125,7.812,0,0
1586465073,-40.527,-44.434,-363.77,-27.832,0,0
1586465073,-34.668,-50.293,-449.219,-43.945,0,0
1586465073,-32.715,-52.734,-614.258,-16.602,0,0
1586465073,-37.598,-48.34,-412.598,-20.02,0,0
1586465073,-31.25,-47.363,-278.32,-51.27,0,0
1586465073,-31.25,-45.41,-324.219,-59.57,0,0
1586465073,-29.297,-46.875,-312.988,-20.508,0,0
1586465073,-34.668,-50.293,-445.801,-4.883,0,0
1586465073,-38.574,-51.27,-370.605,-25.391,0,0
1586465073,-20.996,-50.781,-345.215,-41.016,0,0
1586465073,-41.992,-53.223,-358.398,-41.992,0,0
1586465073,-45.41,-47.363,-299.805,-14.16,0,0
1586465073,-41.016,-47.363,-444.824,-20.508,0,0
1586465073,-49.316,-50.293,-483.887,-44.434,0,0
1586465073,-44.434,-52.734,-432.129,-36.133,0,0
1586465073,-45.898,-52.246,-333.496,-12.207,0,0
1586465073,-36.133,-42.48,-247.559,-20.02,0,0
1586465073,-48.828,-46.387,-439.453,-45.41,0,0
1586465073,-52.734,-48.34,-534.18,-50.781,0,0
1586465073,-46.387,-41.504,-290.039,-27.344,0,0
1586465073,-48.34,-43.945,-211.914,-15.625,0,0
1586465073,-28.809,-41.992,-278.32,-39.062,0,0
1586465073,-31.25,-41.504,-349.609,-48.828,0,0
1586465073,-43.457,-43.945,-292.48,-18.555,0,0
1586465073,-32.227,-39.551,-239.746,2.93,0,0
1586465073,-26.367,-37.598,-377.441,-19.043,0,0
1586465073,-28.809,-37.109,-403.32,-51.27,0,0
1586465073,-28.809,-36.621,-397.949,-24.414,0,0
1586465073,-11.719,-39.062,-518.555,16.113,0,0
1586465073,10.742,-35.156,-330.078,-12.207,0,0
1586465073,-12.695,-35.645,-270.02,-36.133,0,0
1586465073,-22.461,-43.945,-312.5,-24.902,0,0
1586465073,-20.508,-49.805,-313.477,6.348,0,0
1586465073,-20.996,-46.387,-351.562,0,0,0
1586465073,-8.301,-42.48,-309.57,-20.02,0,0
1586465073,-8.301,-43.457,-274.414,-21.973,0,0
1586465073,-2.441,-44.434,-290.527,4.883,0,0
1586465073,-9.277,-46.387,-371.582,31.738,0,0
1586465073,-5.371,-47.363,-393.066,8.301,0,0
1586465073,0.977,-46.387,-389.648,-15.137,0,0
1586465073,-13.184,-45.898,-301.758,2.93,0,0
1586465073,-18.555,-45.898,-233.887,24.902,0,0
1586465073,10.742,-49.316,-311.523,6.348,0,0
1586465073,1.953,-52.734,-541.504,-34.18,0,0
1586465073,-21.484,-44.434,-392.09,-16.602,0,0
1586465073,-21.484,-40.039,-238.77,9.277,0,0
1586465073,-25.391,-41.016,-296.387,-14.16,0,0
1586465073,-32.227,-42.969,-316.406,-37.109,0,0
1586465073,-41.992,-51.27,-475.586,-28.809,0,0
1586465073,-44.922,-50.293,-462.891,9.766,0,0
1586465073,-37.598,-45.898,-334.473,14.16,0,0
1586465073,-30.273,-43.945,-312.5,-30.762,0,0
1586465073,-32.715,-41.992,-368.652,-41.992,0,0
1586465073,-26.367,-42.969,-478.516,-3.906,0,0
1586465073,-25.879,-41.504,-373.535,6.836,0,0
1586465073,-27.832,-39.062,-292.48,-20.508,0,0
1586465073,-34.18,-41.504,-340.82,-51.758,0,0
1586465073,-36.133,-42.48,-315.918,-36.133,0,0
1586465073,-41.016,-47.363,-411.133,0,0,0
1586465073,-57.129,-51.27,-432.129,-17.578,0,0
1586465073,-49.805,-49.805,-415.039,-43.457,0,0
1586465073,-46.387,-52.246,-451.172,-24.414,0,0
1586465073,-52.246,-46.875,-360.352,-10.742,0,0
1586465073,-50.293,-46.387,-392.09,-21.973,0,0
1586465073,-38.574,-53.223,-503.418,-42.969,0,0
1586465073,-39.062,-49.316,-353.516,-41.992,0,0
1586465073,-52.734,-45.41,-242.676,-11.23,0,0
1586465073,-51.27,-46.387,-268.555,0.977,0,0
1586465073,-47.363,-47.852,-347.168,-29.785,0,0
1586465073,-59.57,-48.828,-330.078,-54.688,0,0
1586465073,-59.082,-47.363,-224.121,-29.785,0,0
1586465073,-53.223,-48.34,-250.977,-9.277,0,0
1586465073,-52.734,-45.41,-291.016,-34.18,0,0
1586465073,-53.223,-49.805,-414.062,-51.758,0,0
1586465073,-49.316,-52.246,-594.727,-25.879,0,0
1586465073,-46.875,-45.898,-336.914,-6.348,0,0
1586465073,-44.434,-43.457,-221.68,-13.672,0,0
1586465073,-35.156,-42.969,-288.086,-22.949,0,0
1586465073,-31.738,-48.828,-310.547,-21.973,0,0
1586465073,-38.574,-49.805,-292.969,-5.371,0,0
1586465073,-52.246,-42.969,-250.977,-4.395,0,0
1586465073,-50.293,-44.922,-286.621,-33.203,0,0
1586465073,-58.594,-50.781,-311.523,-49.805,0,0
1586465073,-66.406,-49.316,-352.539,-11.23,0,0
1586465073,-48.34,-44.922,-368.164,19.531,0,0
1586465073,-32.715,-42.48,-358.398,-13.184,0,0
1586465073,-39.062,-45.898,-426.27,-36.133,0,0
1586465073,-45.898,-47.363,-383.301,-1.465,0,0
1586465073,-29.297,-41.992,-271.484,25.391,0,0
1586465073,-38.086,-43.945,-491.699,0.977,0,0
1586465073,-53.223,-41.504,-419.922,-22.461,0,0
1586465073,-41.504,-42.48,-282.227,-13.672,0,0
1586465073,-31.738,-41.992,-311.035,5.859,0,0
1586465073,-41.016,-35.645,-315.43,-5.371,0,0
1586465073,-51.27,-36.621,-459.473,-23.926,0,0
1586465073,-59.57,-38.574,-351.074,-29.297,0,0
1586465073,-43.457,-38.574,-260.254,1.953,0,0
1586465073,-24.414,-40.039,-374.023,-1.465,0,0
1586465073,-40.039,-42.48,-385.254,-48.828,0,0
1586465073,-63.965,-46.387,-461.426,-47.363,0,0
1586465073,-77.637,-46.387,-372.559,-10.742,0,0
1586465073,-57.129,-45.41,-235.84,-3.418,0,0
1586465073,-41.504,-49.316,-275.391,-32.227,0,0
1586465073,-44.922,-52.734,-268.555,-38.574,0,0
1586465073,-37.109,-53.223,-301.27,-14.16,0,0
1586465073,-24.902,-49.316,-266.113,-8.301,0,0
1586465073,-35.645,-45.898,-274.414,-23.438,0,0
1586465073,-50.781,-43.457,-361.328,-45.898,0,0
1586465073,-40.039,-39.551,-322.266,-24.902,0,0
1586465073,-41.016,-42.969,-375.488,4.395,0,0
1586465073,-47.852,-46.387,-444.824,-11.719,0,0
1586465073,-49.316,-44.434,-350.098,-46.387,0,0
1586465073,-46.387,-41.016,-321.777,-34.668,0,0
1586465073,-30.762,-41.504,-302.246,2.441,0,0
1586465073,-44.434,-46.387,-365.723,-0.977,0,0
1586465073,-69.824,-49.805,-571.289,-27.832,0,0
1586465073,-59.082,-47.363,-358.887,-37.598,0,0
1586465073,-50.293,-37.598,-233.887,-9.277,0,0
1586465073,-39.062,-33.203,-252.93,1.953,0,0
1586465073,-34.668,-36.621,-274.414,-35.645,0,0
1586465073,-40.039,-39.551,-350.586,-48.34,0,0
1586465073,-29.297,-41.016,-371.582,-7.812,0,0
1586465073,-26.367,-41.504,-314.941,10.742,0,0
1586465073,-39.062,-36.621,-267.578,-21.484,0,0
1586465073,-36.133,-35.645,-358.887,-32.227,0,0
1586465073,-40.039,-43.457,-560.059,-5.859,0,0
1586465073,-52.734,-40.527,-349.609,9.277,0,0
1586465073,-46.875,-38.574,-285.156,-7.324,0,0
1586465073,-38.086,-41.016,-444.336,-38.574,0,0
1586465073,-46.875,-40.039,-367.676,-43.457,0,0
1586465073,-51.758,-41.992,-397.949,-5.859,0,0
1586465073,-42.48,-37.109,-331.055,0.977,0,0
1586465073,-53.223,-33.691,-328.125,-30.762,0,0
1586465073,-40.527,-39.062,-432.617,-47.852,0,0
1586465073,-38.086,-42.969,-417.48,-19.043,0,0
1586465073,-66.406,-41.504,-536.133,14.648,0,0
1586465073,-56.641,-41.504,-429.688,-16.113,0,0
1586465073,-47.363,-42.969,-333.984,-49.805,0,0
1586465073,-53.223,-43.457,-335.449,-21.973,0,0
1586465073,-53.223,-42.969,-292.48,2.441,0,0
1586465073,-52.246,-44.922,-437.012,-25.879,0,0
1586465073,-40.039,-45.41,-375.977,-71.289,0,0
1586465073,-42.48,-40.527,-315.918,-53.711,0,0
1586465073,-55.664,-40.527,-389.648,-14.16,0,0
1586465073,-69.336,-45.41,-332.031,-28.809,0,0
1586465073,-66.406,-46.875,-441.406,-49.316,0,0
1586465073,-54.199,-42.48,-447.754,-45.898,0,0
1586465073,-52.246,-41.016,-326.66,-24.414,0,0
1586465073,-48.34,-41.992,-304.199,-9.277,0,0
1586465073,-47.363,-39.551,-325.195,-37.598,0,0
1586465073,-43.457,-40.527,-474.121,-56.152,0,0
1586465073,-42.48,-39.551,-418.945,-21.484,0,0
1586465073,-39.551,-34.18,-288.086,-2.441,0,0
1586465073,-56.152,-36.621,-317.383,-19.531,0,0
1586465073,-54.199,-43.457,-352.051,-49.316,0,0
1586465073,-39.551,-46.875,-378.418,-34.18,0,0
1586465073,-30.762,-42.48,-386.23,4.883,0,0
1586465073,-39.062,-41.992,-418.945,-7.324,0,0
1586465073,-53.223,-42.48,-435.059,-32.227,0,0
1586465073,-48.828,-42.48,-380.859,-20.02,0,0
1586465073,-23.926,-42.48,-367.676,11.23,0,0
1586465073,-20.508,-40.039,-329.59,5.859,0,0
1586465073,-44.434,-41.504,-325.195,-41.992,0,0
1586465073,-43.945,-40.527,-377.441,-56.152,0,0
1586465073,-48.34,-41.016,-280.273,-20.508,0,0
1586465073,-63.477,-42.48,-315.918,3.906,0,0
1586465073,-60.547,-45.898,-602.051,-23.926,0,0
1586465073,-66.406,-41.504,-435.547,-55.176,0,0
1586465073,-52.246,-36.133,-259.766,-20.02,0,0
1586465073,-36.621,-38.086,-396.484,9.766,0,0
1586465073,-51.758,-43.945,-428.711,-38.086,0,0
1586465073,-54.688,-50.781,-596.68,-63.477,0,0
1586465073,-60.059,-43.457,-416.992,-37.109,0,0
1586465073,-54.199,-42.48,-291.504,-15.137,0,0
1586465073,-56.641,-42.48,-315.918,-36.133,0,0
1586465073,-71.289,-37.598,-291.504,-50.293,0,0
1586465073,-54.199,-40.527,-452.637,-42.969,0,0
1586465073,-32.227,-40.527,-300.293,-17.578,0,0
1586465073,-57.617,-41.016,-211.914,-5.859,0,0
1586465073,-69.824,-44.922,-273.926,-46.875,0,0
1586465073,-53.711,-47.363,-313.965,-59.082,0,0
1586465073,-57.617,-50.293,-408.203,-7.812,0,0
1586465073,-46.387,-44.922,-372.07,16.113,0,0
1586465073,-40.039,-39.551,-333.008,-13.672,0,0
1586465073,-35.156,-41.504,-306.641,-20.508,0,0
1586465073,-41.992,-43.945,-261.719,7.812,0,0
1586465073,-58.105,-47.363,-390.137,-10.254,0,0
1586465073,-44.922,-48.34,-355.957,-26.855,0,0
1586465073,-45.41,-46.387,-310.059,-42.48,0,0
1586465073,-53.711,-44.434,-328.613,-30.762,0,0
1586465073,-54.199,-42.969,-239.258,-0.977,0,0
1586465073,-58.594,-44.434,-310.547,-17.09,0,0
1586465073,-53.223,-44.434,-323.242,-41.016,0,0
1586465073,-61.523,-47.852,-363.77,-33.203,0,0
1586465073,-61.035,-50.293,-355.957,-10.742,0,0
1586465073,-37.598,-45.898,-225.098,-11.23,0,0
1586465073,-31.25,-51.27,-405.762,-40.039,0,0
1586465073,-31.738,-51.27,-619.141,-41.016,0,0
1586465073,-47.852,-41.016,-373.047,-6.348,0,0
1586465073,-51.27,-34.668,-255.859,0.488,0,0
1586465073,-36.133,-32.227,-295.898,-36.621,0,0
1586465073,-37.598,-35.156,-385.742,-53.223,0,0
1586465073,-41.016,-35.156,-374.023,-20.02,0,0
1586465073,-17.578,-33.691,-306.152,-1.953,0,0
1586465073,-31.25,-39.062,-410.156,-34.18,0,0
1586465073,-57.129,-38.574,-394.043,-49.316,0,0
1586465073,-54.199,-40.527,-405.762,-31.738,0,0
1586465073,-47.852,-41.016,-584.961,-8.789,0,0
1586465073,-50.781,-37.109,-418.457,-13.672,0,0
1586465073,-69.824,-41.504,-292.48,-41.992,0,0
1586465073,-40.527,-41.504,-316.406,-31.25,0,0
1586465073,-27.832,-42.48,-280.273,-8.789,0,0
1586465073,-50.293,-44.434,-300.781,-20.508,0,0
1586465073,-42.48,-42.969,-332.031,-38.086,0,0
1586465073,-37.598,-42.969,-353.027,-43.945,0,0
1586465073,-41.504,-38.086,-295.898,-25.879,0,0
1586465073,-47.363,-40.039,-274.902,-1.465,0,0
1586465073,-55.176,-49.805,-496.582,-22.949,0,0
1586465073,-45.898,-49.316,-466.797,-52.734,0,0
1586465073,-45.898,-45.898,-379.883,-36.133,0,0
1586465073,-60.547,-44.434,-316.895,-22.949,0,0
1586465073,-51.758,-47.363,-299.805,-38.574,0,0
1586465073,-38.574,-55.664,-519.043,-52.246,0,0
1586465074,-29.785,-50.781,-386.719,-39.551,0,0
1586465074,-34.668,-40.527,-231.445,-21.973,0,0
1586465074,-26.367,-37.598,-294.434,-33.691,0,0
1586465074,-32.227,-33.691,-299.805,-54.688,0,0
1586465074,-44.434,-30.762,-427.734,-50.781,0,0
1586465074,-35.645,-38.574,-393.066,-15.625,0,0
1586465074,-32.715,-41.016,-310.059,-5.371,0,0
1586465074,-20.508,-41.016,-382.324,-35.645,0,0
1586465074,-20.02,-39.551,-361.328,-55.176,0,0
1586465074,-47.363,-36.133,-399.414,-27.344,0,0
1586465074,-32.227,-38.574,-437.988,0.977,0,0
1586465074,-26.855,-41.504,-400.879,-30.273,0,0
1586465074,-34.18,-39.062,-319.336,-63.965,0,0
1586465074,-26.367,-36.133,-271.484,-43.457,0,0
1586465074,-19.531,-41.016,-312.5,0,0,0
1586465074,-15.625,-43.457,-327.637,-8.301,0,0
1586465074,-26.855,-43.457,-331.543,-50.293,0,0
1586465074,-41.504,-47.852,-320.312,-49.805,0,0
1586465074,-48.828,-45.898,-313.965,-14.648,0,0
1586465074,-28.809,-46.875,-381.348,-5.859,0,0
1586465074,-17.09,-50.781,-608.887,-29.785,0,0
1586465074,-32.227,-43.945,-433.594,-46.387,0,0
1586465074,-30.273,-44.434,-257.812,-24.414,0,0
1586465074,-41.016,-46.387,-304.688,-15.625,0,0
1586465074,-38.086,-45.41,-363.77,-31.738,0,0
1586465074,-29.785,-45.898,-388.672,-44.434,0,0
1586465074,-30.762,-39.551,-345.215,-21.484,0,0
1586465074,-34.668,-39.551,-291.504,12.695,0,0
1586465074,-37.598,-44.434,-257.812,-11.23,0,0
1586465074,-42.969,-45.41,-361.816,-51.758,0,0
1586465074,-37.109,-46.387,-461.426,-30.273,0,0
1586465074,-33.203,-49.805,-405.273,2.441,0,0
1586465074,-36.133,-48.34,-339.844,-8.301,0,0
1586465074,-33.203,-48.34,-302.246,-41.504,0,0
1586465074,-27.832,-49.805,-297.363,-42.48,0,0
1586465074,-23.438,-48.34,-542.48,-3.906,0,0
1586465074,-27.832,-46.387,-406.738,-5.371,0,0
1586465074,-20.02,-42.969,-266.602,-41.016,0,0
1586465074,-19.043,-44.922,-348.633,-53.711,0,0
1586465074,-37.598,-53.223,-298.34,-22.949,0,0
1586465074,-44.922,-57.129,-409.668,-2.93,0,0
1586465074,-37.598,-51.758,-427.734,-16.602,0,0
1586465074,-42.48,-52.246,-417.48,-52.734,0,0
1586465074,-46.387,-55.664,-383.789,-39.551,0,0
1586465074,-28.32,-50.293,-291.504,-7.324,0,0
1586465074,-31.25,-47.852,-463.867,-19.043,0,0
1586465074,-28.809,-47.852,-458.496,-21.973,0,0
1586465074,-19.043,-43.945,-283.203,-18.066,0,0
1586465074,-28.809,-43.457,-287.598,-12.695,0,0
1586465074,-22.949,-45.41,-292.48,-7.812,0,0
1586465074,-20.508,-52.734,-403.32,-33.203,0,0
1586465074,-42.969,-53.223,-378.418,-39.551,0,0
1586465074,-40.039,-50.293,-258.789,-11.719,0,0
1586465074,-19.043,-53.711,-362.305,2.93,0,0
1586465074,-26.367,-58.105,-397.461,-30.273,0,0
1586465074,-25.879,-56.152,-434.082,-49.805,0,0
1586465074,-23.926,-53.223,-554.688,-16.602,0,0
1586465074,-37.598,-46.875,-299.316,-0.977,0,0
1586465074,-30.273,-42.48,-267.578,-7.812,0,0
1586465074,-26.855,-45.898,-364.258,-17.09,0,0
1586465074,-30.273,-48.828,-388.672,-12.695,0,0
1586465074,-26.367,-44.922,-345.703,2.93,0,0
1586465074,-39.551,-44.434,-285.156,-20.996,0,0
1586465074,-52.246,-46.875,-317.871,-51.758,0,0
1586465074,-51.27,-41.504,-304.199,-41.992,0,0
1586465074,-56.641,-47.363,-302.246,-14.16,0,0
1586465074,-59.57,-58.594,-377.93,-16.602,0,0
1586465074,-57.617,-49.316,-383.789,-38.574,0,0
1586465074,-58.594,-41.504,-331.055,-42.48,0,0
1586465074,-50.781,-42.969,-279.297,-17.578,0,0
1586465074,-41.992,-44.922,-294.922,2.441,0,0
1586465074,-41.016,-47.852,-544.434,-15.625,0,0
1586465074,-47.363,-41.504,-415.527,-37.598,0,0
1586465074,-54.688,-39.551,-241.699,-17.09,0,0
1586465074,-61.035,-42.48,-256.348,2.441,0,0
1586465074,-61.035,-46.387,-325.684,-13.184,0,0
1586465074,-58.105,-42.969,-424.805,-35.156,0,0
1586465074,-52.246,-41.504,-366.699,-28.32,0,0
1586465074,-55.664,-46.387,-394.531,-3.418,0,0
1586465074,-66.406,-44.434,-413.086,-4.883,0,0
1586465074,-60.547,-40.039,-441.895,-32.715,0,0
1586465074,-43.945,-46.387,-606.934,-28.32,0,0
1586465074,-54.688,-51.758,-408.691,-15.137,0,0
1586465074,-69.824,-52.246,-249.023,-24.902,0,0
1586465074,-76.66,-53.711,-331.055,-54.199,0,0
1586465074,-67.383,-46.387,-332.031,-59.57,0,0
1586465074,-49.805,-42.48,-436.035,-20.508,0,0
1586465074,-44.922,-44.922,-337.891,-8.789,0,0
1586465074,-62.988,-44.434,-234.863,-37.598,0,0
1586465074,-66.895,-46.387,-341.309,-44.922,0,0
1586465074,-82.031,-51.27,-381.348,-31.25,0,0
1586465074,-80.078,-50.781,-417.48,-9.766,0,0
1586465074,-74.219,-47.852,-392.09,-25.391,0,0
1586465074,-60.547,-46.875,-313.965,-55.664,0,0
1586465074,-63.477,-49.805,-297.852,-23.438,0,0
1586465074,-63.477,-47.363,-270.996,-11.719,0,0
1586465074,-48.828,-47.852,-349.121,-30.273,0,0
1586465074,-63.965,-46.875,-330.566,-44.922,0,0
1586465074,-62.5,-51.758,-283.691,-49.316,0,0
1586465074,-55.664,-54.199,-291.992,-28.32,0,0
1586465074,-62.988,-49.316,-292.48,-20.508,0,0
1586465074,-65.918,-53.711,-413.086,-34.668,0,0
1586465074,-66.895,-51.758,-458.496,-39.062,0,0
1586465074,-72.266,-50.293,-372.07,-24.902,0,0
1586465074,-69.336,-47.363,-355.957,-7.324,0,0
1586465074,-63.477,-45.898,-325.195,-20.996,0,0
1586465074,-62.988,-50.293,-373.047,-43.945,0,0
1586465074,-82.031,-51.758,-521.973,-31.25,0,0
1586465074,-85.449,-47.852,-342.773,-16.602,0,0
1586465074,-76.66,-48.828,-308.594,-36.133,0,0
1586465074,-83.008,-50.293,-371.582,-51.758,0,0
1586465074,-84.961,-53.711,-369.629,-36.621,0,0
1586465074,-89.355,-56.152,-334.961,-14.648,0,0
1586465074,-97.656,-52.246,-279.785,-5.859,0,0
1586465074,-76.172,-53.711,-387.695,-43.457,0,0
1586465074,-55.176,-54.688,-380.371,-67.383,0,0
1586465074,-70.312,-54.199,-322.266,-38.574,0,0
1586465074,-63.477,-54.199,-552.246,-14.648,0,0
1586465074,-65.43,-53.223,-406.25,-41.016,0,0
1586465074,-70.312,-51.27,-245.605,-55.176,0,0
1586465074,-58.105,-49.805,-280.762,-20.508,0,0
1586465074,-64.941,-49.316,-324.219,-9.277,0,0
1586465074,-63.965,-50.293,-437.988,-30.273,0,0
1586465074,-46.387,-46.387,-339.844,-52.734,0,0
1586465074,-55.664,-44.922,-301.27,-28.809,0,0
1586465074,-69.824,-47.363,-337.891,3.906,0,0
1586465074,-52.246,-45.41,-366.699,-9.277,0,0
1586465074,-41.504,-47.852,-535.156,-35.156,0,0
1586465074,-63.965,-50.293,-593.262,-41.016,0,0
1586465074,-61.035,-47.852,-350.586,-23.926,0,0
1586465074,-53.223,-45.898,-277.344,-20.02,0,0
1586465074,-62.5,-45.898,-365.234,-51.758,0,0
1586465074,-65.918,-52.246,-472.168,-62.012,0,0
1586465074,-75.684,-52.734,-322.754,-29.785,0,0
1586465074,-76.172,-53.223,-263.672,-7.324,0,0
1586465074,-67.383,-49.805,-344.238,-39.062,0,0
1586465074,-78.125,-42.48,-344.727,-58.105,0,0
1586465074,-77.637,-43.945,-373.047,-25.391,0,0
1586465074,-62.5,-47.363,-392.578,-6.348,0,0
1586465074,-60.059,-46.387,-344.238,-37.598,0,0
1586465074,-64.453,-45.898,-317.871,-65.918,0,0
1586465074,-73.242,-51.27,-290.039,-36.133,0,0
1586465074,-66.895,-56.152,-357.422,1.465,0,0
1586465074,-59.57,-55.176,-520.02,-10.742,0,0
1586465074,-57.617,-45.898,-371.582,-36.621,0,0
1586465074,-48.828,-41.504,-245.605,-29.297,0,0
1586465074,-60.059,-47.363,-284.668,-12.207,0,0
1586465074,-69.824,-54.688,-385.742,-24.902,0,0
1586465074,-60.059,-46.875,-348.145,-56.152,0,0
1586465074,-61.523,-44.434,-309.082,-52.246,0,0
1586465074,-49.316,-46.875,-364.746,-12.695,0,0
1586465074,-56.641,-44.434,-370.117,-8.789,0,0
1586465074,-76.172,-44.922,-413.574,-39.551,0,0
1586465074,-67.383,-44.434,-572.754,-56.641,0,0
1586465074,-65.43,-39.551,-350.586,-42.969,0,0
1586465074,-61.523,-37.109,-185.547,-18.555,0,0
1586465074,-66.895,-34.668,-265.137,-27.344,0,0
1586465074,-75.684,-36.133,-267.09,-46.875,0,0
1586465074,-76.172,-39.551,-272.949,-28.32,0,0
1586465074,-75.684,-43.945,-265.137,-4.395,0,0
1586465074,-67.871,-43.945,-282.715,-15.137,0,0
1586465074,-69.336,-40.527,-322.266,-42.48,0,0
1586465074,-74.707,-41.992,-364.746,-30.762,0,0
1586465074,-51.758,-43.457,-557.617,10.254,0,0
1586465074,-41.992,-39.551,-409.668,-20.508,0,0
1586465074,-46.387,-38.086,-267.578,-53.711,0,0
1586465074,-40.527,-43.457,-344.238,-53.711,0,0
1586465074,-41.992,-44.434,-312.5,-28.32,0,0
1586465074,-68.848,-46.387,-407.227,-6.836,0,0
1586465074,-67.383,-51.758,-359.375,-27.344,0,0
1586465074,-60.547,-50.781,-306.152,-39.551,0,0
1586465074,-71.777,-46.387,-294.922,-16.602,0,0
1586465074,-54.688,-44.434,-261.23,0.977,0,0
1586465074,-66.406,-46.387,-421.875,-20.02,0,0
1586465074,-84.473,-48.828,-497.07,-39.551,0,0
1586465074,-73.242,-48.34,-405.762,-42.969,0,0
1586465074,-68.359,-44.922,-320.801,-15.625,0,0
1586465074,-69.824,-46.875,-333.984,-4.883,0,0
1586465074,-62.5,-50.781,-449.707,-48.34,0,0
1586465074,-61.035,-49.805,-453.613,-60.059,0,0
1586465074,-74.707,-43.945,-284.668,-31.25,0,0
1586465074,-68.848,-44.434,-271.484,-16.602,0,0
1586465074,-61.523,-47.363,-320.801,-33.691,0,0
1586465074,-47.363,-42.969,-360.84,-33.203,0,0
1586465074,-36.621,-45.41,-319.824,-12.695,0,0
1586465074,-51.27,-47.852,-255.859,-11.719,0,0
1586465074,-63.965,-43.945,-407.715,-36.133,0,0
1586465074,-57.617,-44.434,-453.613,-52.246,0,0
1586465074,-46.387,-47.852,-400.879,-32.715,0,0
1586465074,-28.32,-46.875,-542.48,4.395,0,0
1586465074,-45.41,-41.016,-359.863,-10.742,0,0
1586465074,-55.176,-44.922,-267.578,-45.41,0,0
1586465074,-40.039,-47.852,-360.84,-27.344,0,0
1586465074,-41.992,-46.387,-367.676,6.836,0,0
1586465074,-35.156,-41.992,-301.758,-1.953,0,0
1586465074,-44.922,-44.434,-274.902,-36.133,0,0
1586465074,-55.664,-48.828,-303.223,-46.875,0,0
1586465074,-45.41,-47.363,-297.852,-22.461,0,0
1586465074,-41.992,-47.363,-376.465,-5.371,0,0
1586465074,-49.316,-49.805,-457.031,-24.414,0,0
1586465074,-59.082,-48.34,-372.559,-47.363,0,0
1586465074,-48.34,-49.805,-300.293,-19.531,0,0
1586465074,-51.27,-52.734,-259.277,6.836,0,0
1586465074,-54.688,-55.176,-295.41,-16.602,0,0
1586465074,-54.199,-58.594,-569.824,-40.039,0,0
1586465074,-51.758,-47.363,-408.691,-32.227,0,0
1586465074,-48.34,-41.992,-230.957,-12.695,0,0
1586465074,-43.945,-50.781,-331.543,-17.09,0,0
1586465074,-42.969,-48.828,-401.367,-35.645,0,0
1586465074,-52.734,-49.316,-482.91,-27.832,0,0
1586465074,-58.594,-52.246,-447.266,-5.859,0,0
1586465074,-58.594,-47.363,-322.266,-5.371,0,0
1586465074,-49.316,-42.48,-283.691,-36.621,0,0
1586465074,-55.664,-41.992,-302.246,-36.621,0,0
1586465074,-49.805,-48.34,-409.668,-0.977,0,0
1586465074,-40.039,-48.828,-330.566,-3.906,0,0
1586465074,-40.527,-43.945,-252.93,-38.086,0,0
1586465074,-48.34,-43.457,-358.887,-45.41,0,0
1586465074,-52.246,-48.34,-318.848,-13.184,0,0
1586465074,-46.387,-54.199,-368.652,6.348,0,0
1586465074,-49.316,-55.664,-375.977,-15.625,0,0
1586465074,-51.758,-52.734,-327.637,-51.758,0,0
1586465074,-47.852,-51.758,-412.598,-40.039,0,0
1586465074,-46.387,-49.316,-354.492,-2.441,0,0
1586465074,-57.617,-53.223,-413.086,-25.391,0,0
1586465074,-57.617,-57.129,-496.582,-56.152,0,0
1586465074,-60.059,-51.758,-328.613,-49.316,0,0
1586465074,-60.547,-50.781,-238.77,-20.996,0,0
1586465074,-58.594,-52.246,-252.441,-13.672,0,0
1586465074,-67.871,-49.805,-328.125,-53.223,0,0
1586465074,-55.176,-46.387,-304.688,-52.734,0,0
1586465074,-38.574,-47.852,-261.23,-20.996,0,0
1586465074,-42.969,-50.293,-303.711,-14.16,0,0
1586465074,-57.617,-45.898,-292.969,-33.691,0,0
1586465074,-55.664,-46.387,-436.035,-53.223,0,0
1586465074,-55.176,-52.734,-596.191,-19.531,0,0
1586465074,-48.828,-48.828,-346.191,19.531,0,0
