timestamps,TP9,AF7,AF8,TP10,Right AUX,Marker
1586465045,-201.66,-55.176,-810.059,-94.238,0,0
1586465045,45.41,97.656,-790.527,-141.602,0,0
1586465045,145.02,134.277,-758.301,74.707,0,0
1586465045,-83.496,38.574,-762.695,148.438,0,0
1586465045,-217.773,-210.449,-855.957,-60.059,0,0
1586465045,-8.789,-259.766,-839.355,-174.316,0,0
1586465045,168.457,-496.094,-784.18,10.254,0,0
1586465045,-7.324,-423.34,-787.109,149.414,0,0
1586465045,-222.168,-42.969,-812.988,-8.789,0,0
1586465045,-90.332,-155.762,-823.242,-171.875,0,0
1586465045,142.09,74.219,-758.789,-81.055,0,0
1586465046,59.082,386.719,-695.312,135.742,0,0
1586465046,-181.641,216.309,-772.949,64.941,0,0
1586465046,-155.762,-147.461,-860.84,-162.598,0,0
1586465046,100.098,22.461,-809.082,-115.234,0,0
1586465046,145.996,400.879,-704.59,122.559,0,0
1586465046,-122.07,151.855,-802.734,100.098,0,0
1586465046,-218.262,-435.547,-881.348,-111.328,0,0
1586465046,18.555,-481.934,-839.355,-190.918,0,0
1586465046,129.395,231.445,-711.914,9.277,0,0
1586465046,-76.172,434.082,-720.215,117.676,0,0
1586465046,-209.961,-529.297,-940.43,-49.805,0,0
1586465046,-37.598,-700.195,-864.746,-176.27,0,0
1586465046,130.371,321.777,-645.996,-56.152,0,0
1586465046,3.418,352.051,-754.883,134.766,0,0
1586465046,-201.172,-349.121,-901.367,32.715,0,0
1586465046,-99.609,-348.145,-833.984,-177.734,0,0
1586465046,124.023,348.633,-671.875,-131.836,0,0
1586465046,77.637,413.086,-728.516,84.961,0,0
1586465046,-156.738,-515.625,-893.066,84.473,0,0
1586465046,-163.574,-708.496,-853.027,-148.438,0,0
1586465046,86.426,55.176,-769.531,-202.637,0,0
1586465046,136.23,148.438,-791.016,37.598,0,0
1586465046,-95.215,-364.746,-843.75,89.844,0,0
1586465046,-192.871,-412.598,-849.121,-104.492,0,0
1586465046,4.395,139.16,-735.84,-200.195,0,0
1586465046,152.344,205.078,-778.809,-0.488,0,0
1586465046,-29.297,-186.523,-886.719,146.973,0,0
1586465046,-208.008,-229.98,-849.609,-33.691,0,0
1586465046,-51.758,145.508,-752.441,-203.125,0,0
1586465046,165.527,147.461,-790.527,-56.152,0,0
1586465046,53.711,-647.461,-930.664,145.996,0,0
1586465046,-196.777,-669.434,-866.211,14.648,0,0
1586465046,-119.629,-35.156,-779.297,-201.172,0,0
1586465046,125.977,-69.824,-824.707,-131.348,0,0
1586465046,103.027,-476.562,-916.992,115.723,0,0
1586465046,-159.18,-387.207,-864.746,92.773,0,0
1586465046,-190.43,-417.48,-863.77,-138.184,0,0
1586465046,56.641,-85.449,-793.945,-195.312,0,0
1586465046,143.066,420.41,-672.363,20.508,0,0
1586465046,-59.57,333.496,-763.184,99.121,0,0
1586465046,-180.176,-71.289,-856.445,-100.098,0,0
1586465046,4.883,-177.246,-852.539,-207.52,0,0
1586465046,161.133,-9.766,-803.711,-6.836,0,0
1586465046,-8.789,104.492,-754.883,142.578,0,0
1586465046,-207.52,-69.336,-842.773,-18.066,0,0
1586465046,-51.758,-732.422,-901.855,-188.477,0,0
1586465046,170.898,-257.812,-744.629,-87.891,0,0
1586465046,64.941,600.098,-669.922,104.492,0,0
1586465046,-179.199,-29.297,-877.93,37.598,0,0
1586465046,-139.648,-331.055,-888.672,-158.203,0,0
1586465046,101.074,108.398,-751.953,-153.809,0,0
1586465046,116.211,312.012,-737.305,75.195,0,0
1586465046,-120.117,-51.758,-803.711,93.75,0,0
1586465046,-178.223,-314.453,-871.582,-135.254,0,0
1586465046,63.965,-46.875,-838.867,-200.195,0,0
1586465046,161.621,250.977,-743.164,32.227,0,0
1586465046,-54.688,30.273,-740.234,131.348,0,0
1586465046,-189.453,-339.355,-839.355,-81.055,0,0
1586465046,-19.043,-118.652,-843.75,-232.422,0,0
1586465046,163.086,141.602,-775.879,-62.5,0,0
1586465046,3.418,-263.672,-825.684,131.348,0,0
1586465046,-186.523,-638.184,-910.645,-2.93,0,0
1586465046,-76.66,0.977,-782.227,-220.703,0,0
1586465046,111.816,444.336,-701.172,-143.555,0,0
1586465046,58.594,165.527,-799.316,103.027,0,0
1586465046,-178.711,-249.023,-847.168,57.617,0,0
1586465046,-149.414,-413.086,-877.441,-159.18,0,0
1586465046,94.727,-148.926,-834.473,-149.902,0,0
1586465046,142.09,-186.523,-762.695,86.914,0,0
1586465046,-104.004,-355.469,-818.359,113.77,0,0
1586465046,-201.172,-17.09,-833.496,-121.582,0,0
1586465046,25.391,114.258,-794.922,-202.637,0,0
1586465046,151.855,312.988,-747.559,19.531,0,0
1586465046,-48.34,354.004,-729.98,131.348,0,0
1586465046,-211.914,-2.441,-836.426,-34.18,0,0
1586465046,-43.457,-218.262,-864.258,-178.223,0,0
1586465046,138.672,116.699,-772.461,-41.992,0,0
1586465046,19.531,337.891,-749.512,145.996,0,0
1586465046,-173.828,-247.07,-886.719,52.734,0,0
1586465046,-95.703,-782.227,-937.012,-160.156,0,0
1586465046,135.742,-706.055,-872.559,-133.789,0,0
1586465046,82.031,74.219,-752.93,73.242,0,0
1586465046,-188.965,-79.59,-860.84,30.762,0,0
1586465046,-175.781,-689.453,-880.859,-165.039,0,0
1586465046,62.988,-105.957,-736.328,-188.477,0,0
1586465046,128.906,521.973,-679.688,27.832,0,0
1586465046,-100.586,240.234,-787.109,81.055,0,0
1586465046,-238.281,-281.25,-877.93,-128.418,0,0
1586465046,-34.668,-29.297,-733.398,-194.336,0,0
1586465046,144.531,539.551,-670.898,13.184,0,0
1586465046,-62.012,150.391,-823.242,126.465,0,0
1586465046,-264.16,-602.051,-886.23,-39.062,0,0
1586465046,-98.633,-231.934,-757.324,-205.566,0,0
1586465046,106.934,514.648,-660.156,-77.148,0,0
1586465046,4.395,301.758,-768.066,119.629,0,0
1586465046,-215.332,-655.273,-883.301,32.715,0,0
1586465046,-154.785,-525.879,-817.383,-164.551,0,0
1586465046,85.449,450.684,-672.363,-114.746,0,0
1586465046,64.453,351.074,-753.418,113.77,0,0
1586465046,-181.641,-342.773,-938.477,69.336,0,0
1586465046,-208.496,-336.426,-854.492,-175.293,0,0
1586465046,25.879,259.766,-704.102,-217.285,0,0
1586465046,120.605,70.312,-811.523,42.48,0,0
1586465046,-126.953,-520.508,-924.805,117.188,0,0
1586465046,-255.371,-312.988,-847.168,-132.324,0,0
1586465046,-43.945,25.391,-831.543,-219.727,0,0
1586465046,120.117,-152.832,-832.52,8.301,0,0
1586465046,-42.48,-270.996,-841.797,126.953,0,0
1586465046,-248.535,-161.133,-847.168,-41.992,0,0
1586465046,-121.094,-177.246,-853.516,-201.66,0,0
1586465046,99.609,-32.715,-819.336,-94.727,0,0
1586465046,6.348,-87.402,-839.355,121.094,0,0
1586465046,-229.98,-256.348,-892.09,45.898,0,0
1586465046,-181.152,-296.875,-881.836,-177.246,0,0
1586465046,73.242,-220.703,-818.359,-162.109,0,0
1586465046,78.125,87.402,-731.445,58.594,0,0
1586465046,-182.617,202.148,-777.344,51.27,0,0
1586465046,-224.609,-153.32,-862.793,-135.742,0,0
1586465046,29.785,-125.488,-760.254,-172.852,0,0
1586465046,141.113,346.191,-673.828,38.574,0,0
1586465046,-86.426,301.27,-789.551,137.207,0,0
1586465046,-226.562,-295.41,-913.086,-63.965,0,0
1586465046,-34.18,-396.973,-840.82,-210.449,0,0
1586465046,125.488,337.402,-659.668,-34.18,0,0
1586465046,-27.832,327.637,-788.574,131.836,0,0
1586465046,-218.75,-501.953,-898.438,-17.09,0,0
1586465046,-80.566,-777.344,-878.906,-161.621,0,0
1586465046,150.879,-75.684,-746.094,-69.824,0,0
1586465046,72.754,470.215,-682.129,105.957,0,0
1586465046,-184.57,-301.27,-904.297,72.266,0,0
1586465046,-154.785,-916.504,-952.148,-141.113,0,0
1586465046,80.078,40.527,-749.512,-159.668,0,0
1586465046,83.008,549.316,-750,72.754,0,0
1586465046,-139.16,-67.871,-863.77,77.637,0,0
1586465046,-202.148,-393.555,-899.902,-114.258,0,0
1586465046,7.324,130.371,-761.719,-175.781,0,0
1586465046,121.094,566.406,-681.152,5.859,0,0
1586465046,-82.031,162.109,-842.773,119.629,0,0
1586465046,-228.516,-438.477,-920.41,-42.48,0,0
1586465046,-55.664,-324.707,-858.887,-204.102,0,0
1586465046,119.629,209.473,-772.949,-48.828,0,0
1586465046,-6.348,-390.137,-860.352,188.477,0,0
1586465046,-206.055,-786.133,-912.109,44.922,0,0
1586465046,-120.605,-14.16,-791.992,-194.336,0,0
1586465046,120.117,301.758,-762.695,-99.121,0,0
1586465046,104.492,134.277,-837.402,104.98,0,0
1586465046,-160.645,-90.332,-860.352,61.523,0,0
1586465046,-194.336,-143.555,-845.703,-150.879,0,0
1586465046,39.551,33.691,-803.223,-164.062,0,0
1586465046,100.098,133.301,-831.543,77.637,0,0
1586465046,-112.793,-120.117,-887.207,115.723,0,0
1586465046,-195.801,-497.559,-925.293,-92.285,0,0
1586465046,20.508,-517.09,-866.211,-170.41,0,0
1586465046,150.391,-117.188,-782.715,21.484,0,0
1586465046,-73.242,-125.977,-829.59,145.508,0,0
1586465046,-241.699,-648.926,-920.41,-15.625,0,0
1586465046,-83.496,-570.312,-842.285,-171.875,0,0
1586465046,120.117,48.828,-710.938,-26.855,0,0
1586465046,-1.465,405.762,-754.883,128.906,0,0
1586465046,-225.586,-29.785,-880.371,9.277,0,0
1586465046,-123.047,-785.645,-936.035,-152.344,0,0
1586465046,104.492,-445.312,-847.656,-116.699,0,0
1586465046,69.824,192.383,-805.664,122.559,0,0
1586465046,-169.922,-216.309,-888.184,102.539,0,0
1586465046,-179.199,-716.309,-868.164,-165.527,0,0
1586465046,52.734,-415.039,-816.406,-193.359,0,0
1586465046,109.375,370.117,-754.395,28.809,0,0
1586465046,-119.141,91.797,-820.312,86.426,0,0
1586465046,-232.91,-484.863,-929.688,-106.445,0,0
1586465046,-35.156,7.812,-774.414,-217.285,0,0
1586465046,138.184,444.824,-702.148,-41.992,0,0
1586465046,-21.973,-62.012,-853.027,136.719,0,0
1586465046,-224.121,-396.484,-907.715,-21.973,0,0
1586465046,-93.262,-78.125,-831.055,-204.59,0,0
1586465046,138.672,59.57,-813.477,-50.781,0,0
1586465046,73.242,-366.211,-875.488,151.855,0,0
1586465046,-210.938,-605.957,-900.879,21.484,0,0
1586465046,-192.383,-146.484,-814.453,-186.035,0,0
1586465046,102.539,236.328,-756.348,-128.418,0,0
1586465046,129.883,-167.48,-845.215,118.164,0,0
1586465046,-125,-616.211,-926.758,104.004,0,0
1586465046,-195.312,-172.363,-823.73,-140.137,0,0
1586465046,58.594,266.602,-760.254,-182.617,0,0
1586465046,157.715,224.609,-765.625,38.574,0,0
1586465046,-78.613,-43.457,-791.016,105.469,0,0
1586465046,-225.098,-295.898,-861.816,-84.961,0,0
1586465046,-50.781,-169.434,-844.238,-214.844,0,0
1586465046,145.996,-279.785,-816.895,-26.855,0,0
1586465046,-1.465,-262.695,-819.336,125.977,0,0
1586465046,-224.609,37.109,-847.168,-47.363,0,0
1586465046,-96.191,-146.484,-888.672,-211.914,0,0
1586465046,138.184,229.492,-752.93,-104.98,0,0
1586465046,75.195,599.121,-678.711,101.562,0,0
1586465046,-165.527,168.457,-839.355,20.508,0,0
1586465046,-140.625,-369.629,-925.781,-169.922,0,0
1586465046,113.77,-46.875,-832.031,-140.625,0,0
1586465046,113.281,501.465,-720.215,76.172,0,0
1586465046,-145.02,170.898,-840.332,86.914,0,0
1586465046,-190.43,-667.969,-966.797,-94.727,0,0
1586465046,38.574,-672.852,-899.414,-149.902,0,0
1586465046,141.113,138.184,-737.793,36.621,0,0
1586465046,-54.199,251.465,-772.461,144.043,0,0
1586465046,-209.473,-549.316,-907.715,-51.758,0,0
1586465046,-49.805,-536.133,-838.867,-207.52,0,0
1586465046,138.184,468.75,-671.387,-63.477,0,0
1586465046,20.02,416.504,-773.926,117.188,0,0
1586465046,-180.176,-272.461,-892.09,9.766,0,0
1586465046,-76.172,-276.367,-819.824,-184.57,0,0
1586465046,135.254,387.695,-717.285,-112.793,0,0
1586465046,66.406,341.309,-772.461,121.582,0,0
1586465046,-174.805,-517.09,-916.504,52.734,0,0
1586465046,-153.809,-637.207,-890.137,-185.059,0,0
1586465046,84.473,160.156,-746.582,-190.918,0,0
1586465046,131.348,393.066,-763.672,74.707,0,0
1586465046,-113.281,-284.18,-887.695,140.625,0,0
1586465046,-219.727,-493.164,-883.301,-93.75,0,0
1586465046,0.977,117.188,-754.883,-209.473,0,0
1586465046,141.113,385.254,-764.648,-0.977,0,0
1586465046,-48.828,-406.738,-888.672,152.832,0,0
1586465046,-226.074,-621.094,-882.324,-29.785,0,0
1586465046,-82.52,-68.848,-809.57,-218.262,0,0
1586465046,124.023,246.582,-757.812,-74.707,0,0
1586465046,15.137,-94.238,-867.188,134.766,0,0
1586465046,-220.703,-389.16,-891.113,13.672,0,0
1586465046,-146.973,-155.762,-814.941,-195.801,0,0
1586465046,122.07,-183.105,-828.125,-129.883,0,0
1586465046,90.82,-451.172,-921.875,94.727,0,0
1586465046,-189.453,-406.25,-901.367,58.594,0,0
1586465046,-206.055,-249.023,-884.766,-159.18,0,0
1586465046,58.594,-360.84,-855.469,-178.711,0,0
1586465046,143.066,-272.949,-808.594,55.664,0,0
1586465046,-112.793,126.465,-784.18,100.586,0,0
1586465046,-227.051,30.762,-834.961,-81.543,0,0
1586465046,-12.207,-432.617,-899.414,-160.645,0,0
1586465046,145.02,-441.406,-852.539,2.441,0,0
1586465046,-30.273,38.086,-785.156,107.91,0,0
1586465046,-228.516,-37.598,-867.676,-30.273,0,0
1586465046,-74.707,-572.754,-859.863,-163.086,0,0
1586465046,142.578,-134.766,-699.707,-70.312,0,0
1586465046,14.648,544.434,-699.219,120.117,0,0
1586465046,-212.402,-47.852,-858.887,43.457,0,0
1586465046,-147.461,-289.551,-870.605,-142.578,0,0
1586465046,90.332,256.836,-724.609,-121.582,0,0
1586465046,121.094,681.152,-659.18,125.488,0,0
1586465046,-113.77,127.441,-802.246,129.395,0,0
1586465046,-214.355,-514.16,-933.105,-164.062,0,0
1586465046,-17.09,-221.191,-834.961,-258.789,0,0
1586465046,82.031,170.41,-759.766,-31.25,0,0
1586465046,-119.629,-276.855,-849.121,73.73,0,0
1586465046,-258.789,-688.477,-905.273,-120.605,0,0
1586465046,-61.035,-248.047,-850.586,-253.418,0,0
1586465046,99.609,338.867,-749.512,-79.102,0,0
1586465046,-60.059,-146.973,-847.168,104.98,0,0
1586465046,-241.699,-868.164,-958.008,-13.184,0,0
1586465046,-131.836,-169.434,-806.152,-222.656,0,0
1586465046,109.375,371.582,-740.723,-103.027,0,0
1586465047,29.297,255.371,-799.805,97.656,0,0
1586465047,-222.168,-111.816,-858.887,9.277,0,0
1586465047,-169.922,-402.832,-895.02,-173.34,0,0
1586465047,68.848,-204.59,-833.008,-161.621,0,0
1586465047,83.984,-36.621,-792.48,62.012,0,0
1586465047,-159.668,-157.715,-839.844,82.031,0,0
1586465047,-229.98,-112.305,-845.215,-147.461,0,0
1586465047,-7.324,135.254,-789.551,-208.496,0,0
1586465047,116.699,-281.25,-805.176,41.504,0,0
1586465047,-102.539,-383.301,-807.129,127.441,0,0
1586465047,-264.648,-93.75,-827.637,-106.445,0,0
1586465047,-64.453,-208.008,-875.488,-215.82,0,0
1586465047,147.949,161.133,-789.551,-44.434,0,0
1586465047,7.324,367.188,-760.742,109.375,0,0
1586465047,-213.867,-203.125,-892.09,-11.23,0,0
1586465047,-105.957,-687.5,-944.336,-183.105,0,0
1586465047,110.352,-400.391,-812.5,-91.309,0,0
1586465047,37.598,242.188,-715.332,77.637,0,0
1586465047,-210.449,-245.605,-902.832,27.344,0,0
1586465047,-198.242,-794.922,-916.016,-149.414,0,0
1586465047,42.969,-178.711,-779.785,-182.617,0,0
1586465047,93.262,619.629,-665.527,51.758,0,0
1586465047,-125,268.555,-809.082,133.789,0,0
1586465047,-216.797,-384.766,-902.344,-73.242,0,0
1586465047,12.695,-26.855,-751.953,-181.152,0,0
1586465047,153.809,546.387,-712.402,22.461,0,0
1586465047,-56.152,8.789,-848.145,153.32,0,0
1586465047,-220.703,-574.219,-906.25,-27.344,0,0
1586465047,-66.406,-210.938,-816.895,-216.797,0,0
1586465047,134.766,404.297,-690.43,-66.406,0,0
1586465047,15.625,361.816,-751.953,134.766,0,0
1586465047,-196.289,-589.355,-899.414,28.32,0,0
1586465047,-120.117,-516.113,-822.266,-177.734,0,0
1586465047,100.098,286.133,-746.582,-142.578,0,0
1586465047,64.453,51.758,-861.328,100.098,0,0
1586465047,-182.617,-291.504,-909.18,57.617,0,0
1586465047,-200.195,-172.363,-833.496,-176.27,0,0
1586465047,57.129,221.68,-750.488,-186.523,0,0
1586465047,146.973,49.316,-832.52,68.848,0,0
1586465047,-84.961,-614.258,-948.242,141.113,0,0
1586465047,-212.402,-411.133,-849.609,-80.078,0,0
1586465047,5.371,159.18,-753.418,-183.105,0,0
1586465047,174.316,-154.297,-842.285,47.363,0,0
1586465047,-31.738,-478.516,-884.766,189.941,0,0
1586465047,-233.398,-235.352,-847.656,-14.16,0,0
1586465047,-73.242,-223.145,-872.559,-203.125,0,0
1586465047,135.742,82.52,-771.973,-79.102,0,0
1586465047,16.113,270.508,-734.375,105.957,0,0
1586465047,-226.562,-163.574,-884.766,-7.812,0,0
1586465047,-164.551,-498.047,-907.715,-188.477,0,0
1586465047,78.125,-348.633,-813.965,-156.25,0,0
1586465047,94.238,45.898,-734.375,70.801,0,0
1586465047,-143.066,100.098,-818.359,56.152,0,0
1586465047,-197.754,-179.688,-905.273,-173.34,0,0
1586465047,37.109,-530.762,-840.82,-195.801,0,0
1586465047,137.207,-43.457,-688.965,30.273,0,0
1586465047,-96.68,356.934,-751.953,104.492,0,0
1586465047,-216.309,-319.336,-924.805,-95.215,0,0
1586465047,-17.578,-314.941,-876.465,-213.379,0,0
1586465047,129.395,277.832,-742.676,-40.039,0,0
1586465047,-29.785,352.539,-782.715,128.418,0,0
1586465047,-231.445,-228.027,-875.488,-10.254,0,0
1586465047,-91.797,-625,-892.578,-194.824,0,0
1586465047,124.512,-198.242,-814.453,-84.473,0,0
1586465047,21.484,143.066,-770.996,133.789,0,0
1586465047,-210.449,-426.758,-887.695,75.195,0,0
1586465047,-155.273,-898.438,-943.848,-145.508,0,0
1586465047,68.848,-4.883,-739.258,-152.832,0,0
1586465047,85.938,629.395,-697.266,94.727,0,0
1586465047,-143.066,-124.512,-831.055,103.027,0,0
1586465047,-218.75,-476.562,-841.797,-125.977,0,0
1586465047,14.648,71.289,-811.523,-206.055,0,0
1586465047,108.887,174.316,-828.613,4.395,0,0
1586465047,-101.562,-432.129,-867.676,122.559,0,0
1586465047,-218.75,-860.84,-913.574,-45.41,0,0
1586465047,-46.875,-253.906,-805.664,-206.543,0,0
1586465047,120.117,494.629,-687.012,-72.754,0,0
1586465047,-9.277,-111.816,-805.176,125.488,0,0
1586465047,-216.309,-656.738,-890.137,24.414,0,0
1586465047,-101.074,-48.828,-792.969,-176.758,0,0
1586465047,123.535,268.066,-755.371,-119.629,0,0
1586465047,27.832,188.965,-823.73,104.492,0,0
1586465047,-207.031,-36.133,-853.516,47.852,0,0
1586465047,-149.414,-91.309,-845.703,-164.062,0,0
1586465047,89.844,77.637,-798.828,-154.297,0,0
1586465047,95.703,164.062,-831.543,71.289,0,0
1586465047,-147.949,-213.867,-885.254,102.539,0,0
1586465047,-227.539,-507.324,-878.906,-107.422,0,0
1586465047,2.93,-505.371,-897.949,-173.34,0,0
1586465047,121.094,-268.555,-810.547,24.902,0,0
1586465047,-103.516,79.102,-752.93,125,0,0
1586465047,-241.211,-415.527,-908.691,-34.668,0,0
1586465047,-67.383,-480.957,-845.215,-178.711,0,0
1586465047,118.652,21.484,-748.535,-67.383,0,0
1586465047,-11.23,158.691,-782.715,112.793,0,0
1586465047,-216.309,-279.297,-891.602,12.207,0,0
1586465047,-110.352,-432.617,-864.258,-194.336,0,0
1586465047,111.816,194.824,-725.098,-143.555,0,0
1586465047,83.984,296.875,-811.035,86.426,0,0
1586465047,-143.555,-230.957,-882.812,65.918,0,0
1586465047,-137.207,-747.07,-876.953,-151.367,0,0
1586465047,98.145,-195.312,-742.188,-181.641,0,0
1586465047,149.902,649.902,-691.895,53.711,0,0
1586465047,-98.633,122.07,-860.84,138.672,0,0
1586465047,-212.891,-529.785,-913.574,-82.031,0,0
1586465047,-14.16,-40.039,-763.672,-216.797,0,0
1586465047,132.324,631.836,-664.062,-7.324,0,0
1586465047,-16.113,165.527,-830.566,168.457,0,0
1586465047,-203.125,-566.895,-932.617,-7.324,0,0
1586465047,-83.984,-242.676,-831.543,-194.336,0,0
1586465047,128.418,237.305,-792.969,-69.336,0,0
1586465047,37.598,-132.812,-882.324,148.438,0,0
1586465047,-203.125,-890.137,-954.102,62.012,0,0
1586465047,-141.113,-530.762,-847.656,-180.664,0,0
1586465047,98.633,88.379,-797.363,-149.414,0,0
1586465047,65.43,61.035,-796.875,111.328,0,0
1586465047,-175.781,-36.621,-816.895,94.238,0,0
1586465047,-198.242,-88.867,-851.562,-161.621,0,0
1586465047,36.621,199.219,-784.18,-196.777,0,0
1586465047,138.184,260.254,-782.227,20.508,0,0
1586465047,-84.961,-38.086,-821.777,102.539,0,0
1586465047,-235.84,-210.449,-866.699,-92.773,0,0
1586465047,-24.414,-183.105,-862.793,-212.891,0,0
1586465047,159.668,-419.434,-840.82,-12.207,0,0
1586465047,-11.719,-414.062,-839.355,116.211,0,0
1586465047,-203.613,-80.566,-844.727,-42.969,0,0
1586465047,-72.266,-242.188,-865.723,-205.566,0,0
1586465047,143.555,51.27,-777.344,-97.656,0,0
1586465047,67.383,314.453,-779.785,117.676,0,0
1586465047,-166.504,28.809,-830.078,21.973,0,0
1586465047,-127.441,-294.434,-908.691,-152.832,0,0
1586465047,111.816,-32.227,-814.941,-124.512,0,0
1586465047,118.652,441.406,-690.918,58.105,0,0
1586465047,-124.512,138.672,-849.121,84.473,0,0
1586465047,-179.199,-617.188,-963.867,-103.516,0,0
1586465047,41.504,-556.641,-832.031,-191.406,0,0
1586465047,137.695,454.102,-638.184,9.277,0,0
1586465047,-77.148,381.836,-800.293,123.535,0,0
1586465047,-208.984,-489.258,-888.184,-58.105,0,0
1586465047,1.953,-663.574,-868.164,-203.613,0,0
1586465047,165.527,149.414,-734.375,-57.129,0,0
1586465047,6.836,427.734,-749.512,103.516,0,0
1586465047,-181.152,-318.359,-910.156,5.371,0,0
1586465047,-103.027,-364.258,-847.168,-177.246,0,0
1586465047,129.395,404.297,-712.891,-116.211,0,0
1586465047,86.426,458.984,-774.902,129.395,0,0
1586465047,-166.992,-374.023,-909.18,54.688,0,0
1586465047,-144.043,-614.746,-901.855,-158.691,0,0
1586465047,121.094,163.574,-761.23,-131.348,0,0
1586465047,150.879,480.957,-735.352,87.891,0,0
1586465047,-119.141,-403.32,-875.977,115.723,0,0
1586465047,-228.027,-587.891,-868.652,-120.605,0,0
1586465047,-21.484,208.496,-774.414,-239.258,0,0
1586465047,112.793,265.137,-812.012,-2.441,0,0
1586465047,-86.426,-220.215,-896.484,116.699,0,0
1586465047,-254.395,-220.703,-855.469,-82.52,0,0
1586465047,-81.055,220.215,-767.09,-199.707,0,0
1586465047,124.512,166.016,-824.707,-44.922,0,0
1586465047,14.648,-431.641,-932.617,163.086,0,0
1586465047,-240.723,-528.809,-880.859,22.949,0,0
1586465047,-140.137,-166.992,-818.359,-239.746,0,0
1586465047,134.277,-124.512,-829.102,-159.668,0,0
1586465047,65.918,-821.777,-935.547,102.051,0,0
1586465047,-198.242,-688.965,-890.137,38.574,0,0
1586465047,-195.312,-55.664,-832.031,-177.246,0,0
1586465047,52.246,0.488,-767.09,-179.688,0,0
1586465047,105.957,194.824,-711.426,37.109,0,0
1586465047,-114.746,237.793,-805.664,95.215,0,0
1586465047,-208.984,-195.801,-884.766,-109.375,0,0
1586465047,4.395,-299.316,-860.352,-182.129,0,0
1586465047,141.602,-53.711,-799.805,5.859,0,0
1586465047,-41.504,56.152,-808.594,108.887,0,0
1586465047,-208.984,-110.352,-854.492,-48.828,0,0
1586465047,-48.34,-763.184,-928.223,-204.102,0,0
1586465047,160.156,-579.59,-816.406,-80.566,0,0
1586465047,16.602,475.586,-664.551,99.121,0,0
1586465047,-220.703,4.883,-856.445,0.977,0,0
1586465047,-141.602,-640.137,-912.598,-178.711,0,0
1586465047,88.379,86.914,-741.211,-135.742,0,0
1586465047,78.613,595.215,-713.379,75.195,0,0
1586465047,-155.762,-88.867,-874.512,78.613,0,0
1586465047,-173.828,-418.457,-907.715,-144.531,0,0
1586465047,64.453,-126.953,-837.891,-165.527,0,0
1586465047,137.207,120.117,-799.316,58.594,0,0
1586465047,-95.215,-340.332,-913.086,106.934,0,0
1586465047,-216.797,-800.781,-947.266,-90.82,0,0
1586465047,-15.137,-188.965,-822.266,-210.449,0,0
1586465047,152.832,319.824,-773.926,-25.879,0,0
1586465047,-13.672,202.148,-771.973,135.742,0,0
1586465047,-214.844,-93.75,-830.566,-8.789,0,0
1586465047,-95.215,79.102,-796.387,-180.664,0,0
1586465047,136.23,470.215,-710.449,-69.824,0,0
1586465047,70.312,384.766,-768.066,137.207,0,0
1586465047,-184.082,-21.484,-846.68,52.734,0,0
1586465047,-128.418,-182.129,-863.77,-130.371,0,0
1586465047,105.957,80.566,-793.457,-92.773,0,0
1586465047,104.004,-47.363,-747.559,104.004,0,0
1586465047,-131.836,-272.949,-804.688,95.703,0,0
1586465047,-180.664,-297.363,-879.883,-135.742,0,0
1586465047,62.5,-195.801,-869.141,-180.176,0,0
1586465047,174.316,-214.844,-804.688,55.176,0,0
1586465047,-39.062,-217.285,-798.34,144.043,0,0
1586465047,-197.754,39.062,-833.496,-66.406,0,0
1586465047,-33.691,-88.379,-878.906,-219.238,0,0
1586465047,166.992,262.695,-768.066,-30.273,0,0
1586465047,8.301,513.672,-717.773,133.789,0,0
1586465047,-215.82,-146.973,-891.602,-8.301,0,0
1586465047,-87.891,-701.66,-946.289,-180.176,0,0
1586465047,139.648,-479.98,-828.613,-102.051,0,0
1586465047,43.945,346.191,-698.242,104.004,0,0
1586465047,-200.195,-25.391,-891.113,55.176,0,0
1586465047,-160.156,-504.395,-885.742,-177.734,0,0
1586465047,75.195,120.605,-742.676,-188.477,0,0
1586465047,101.074,365.723,-752.441,59.57,0,0
1586465047,-145.508,37.598,-865.723,72.266,0,0
1586465047,-222.656,-304.199,-895.02,-128.418,0,0
1586465047,13.184,1.465,-751.953,-177.246,0,0
1586465047,126.953,453.613,-726.562,25.391,0,0
1586465047,-83.496,-11.719,-879.883,132.324,0,0
1586465047,-200.684,-779.785,-936.035,-26.367,0,0
1586465047,-18.066,-605.469,-868.164,-173.828,0,0
1586465047,122.559,435.547,-699.219,-74.707,0,0
1586465047,-0.977,340.82,-777.832,112.305,0,0
1586465047,-199.707,-311.035,-901.855,4.883,0,0
1586465047,-103.516,-168.457,-850.586,-201.172,0,0
1586465047,115.234,365.723,-727.539,-129.395,0,0
1586465047,68.359,374.512,-763.672,106.445,0,0
1586465047,-175.293,-220.703,-927.246,78.613,0,0
1586465047,-172.363,-420.41,-866.211,-139.648,0,0
1586465047,80.078,37.109,-772.461,-174.316,0,0
1586465047,147.461,54.199,-847.168,56.152,0,0
1586465047,-102.051,-543.945,-923.828,108.887,0,0
1586465047,-225.098,-292.969,-836.426,-107.91,0,0
1586465047,4.883,178.711,-786.133,-178.711,0,0
1586465047,143.555,156.738,-777.832,24.902,0,0
1586465047,-48.34,6.348,-798.34,169.434,0,0
1586465047,-204.59,-0.977,-845.703,3.906,0,0
1586465047,-53.711,-102.051,-867.676,-177.246,0,0
1586465047,141.602,57.129,-806.641,-32.715,0,0
1586465047,46.875,213.379,-771.484,169.922,0,0
1586465047,-190.43,27.344,-823.242,29.297,0,0
1586465047,-130.859,-77.637,-831.055,-183.594,0,0
1586465047,127.441,-226.074,-832.031,-122.559,0,0
1586465047,100.098,-289.551,-832.031,72.266,0,0
1586465047,-149.902,-251.953,-854.004,47.852,0,0
1586465047,-162.598,-232.91,-883.789,-141.602,0,0
1586465047,77.148,-495.605,-828.125,-147.461,0,0
1586465047,156.738,-229.492,-755.859,73.242,0,0
1586465047,-62.012,205.078,-826.172,113.77,0,0
1586465047,-200.195,-288.086,-914.551,-76.172,0,0
1586465047,-9.766,-263.184,-861.816,-185.059,0,0
1586465047,148.926,469.238,-691.895,-14.648,0,0
1586465047,-24.414,490.723,-743.652,145.996,0,0
1586465047,-190.43,-199.707,-883.301,-2.93,0,0
1586465047,-65.918,-515.137,-897.949,-173.828,0,0
1586465047,110.352,93.75,-766.602,-100.098,0,0
1586465048,45.41,479.492,-743.164,123.535,0,0
1586465048,-182.617,-356.934,-910.156,62.988,0,0
1586465048,-162.598,-958.496,-952.637,-162.109,0,0
1586465048,78.125,-167.48,-773.438,-139.648,0,0
1586465048,83.008,507.324,-705.566,57.617,0,0
1586465048,-177.734,17.09,-815.43,61.035,0,0
1586465048,-205.078,-387.207,-858.887,-150.879,0,0
1586465048,32.715,155.273,-745.117,-208.984,0,0
1586465048,119.629,506.348,-725.098,36.133,0,0
1586465048,-78.125,-28.809,-872.07,161.621,0,0
1586465048,-208.008,-613.281,-937.012,-51.758,0,0
1586465048,-31.738,-355.957,-828.125,-194.824,0,0
1586465048,142.09,354.98,-708.496,-29.297,0,0
1586465048,9.766,-343.75,-895.996,153.809,0,0
1586465048,-197.754,-910.156,-966.797,23.926,0,0
1586465048,-104.98,-117.188,-816.406,-205.078,0,0
1586465048,125.488,264.648,-776.855,-96.191,0,0
1586465048,59.57,123.535,-830.566,141.602,0,0
1586465048,-196.289,-57.129,-838.867,39.062,0,0
1586465048,-170.898,19.531,-812.012,-194.336,0,0
1586465048,87.891,126.953,-816.406,-173.828,0,0
1586465048,99.121,227.539,-816.895,66.895,0,0
1586465048,-127.441,-78.125,-861.328,90.332,0,0
1586465048,-179.199,-493.652,-903.809,-117.188,0,0
1586465048,11.23,-460.449,-915.039,-180.664,0,0
1586465048,123.047,-312.988,-850.098,27.832,0,0
1586465048,-78.125,-148.438,-816.406,128.906,0,0
1586465048,-225.586,-298.34,-906.738,-66.895,0,0
1586465048,-33.203,-170.898,-821.289,-193.848,0,0
1586465048,165.527,181.152,-732.91,-43.945,0,0
1586465048,38.086,329.59,-774.414,105.469,0,0
1586465048,-186.523,-145.996,-893.555,-14.16,0,0
1586465048,-92.285,-487.305,-878.418,-194.824,0,0
1586465048,134.277,13.672,-759.766,-123.047,0,0
1586465048,56.641,206.543,-812.5,77.148,0,0
1586465048,-178.711,-272.949,-887.207,40.039,0,0
1586465048,-160.645,-882.324,-947.754,-143.555,0,0
1586465048,64.453,-433.105,-837.402,-184.082,0,0
1586465048,119.629,672.363,-634.766,31.25,0,0
1586465048,-111.328,298.828,-794.434,117.188,0,0
1586465048,-224.121,-348.633,-917.48,-109.375,0,0
1586465048,-28.809,-46.875,-817.871,-219.238,0,0
1586465048,122.559,427.734,-737.305,-5.859,0,0
1586465048,-48.34,71.289,-855.957,136.23,0,0
1586465048,-237.793,-396.484,-916.016,-26.367,0,0
1586465048,-77.637,-39.551,-811.035,-198.242,0,0
1586465048,126.953,128.418,-837.402,-64.941,0,0
1586465048,20.02,-299.316,-900.879,158.691,0,0
1586465048,-174.805,-910.645,-942.383,52.734,0,0
1586465048,-144.043,-369.141,-825.684,-188.477,0,0
1586465048,100.098,287.598,-766.602,-114.746,0,0
1586465048,95.703,14.648,-812.5,95.215,0,0
1586465048,-183.105,-207.52,-861.816,21.484,0,0
1586465048,-188.965,-99.121,-839.355,-177.246,0,0
1586465048,71.777,236.816,-764.648,-195.801,0,0
1586465048,133.301,284.668,-805.176,41.504,0,0
1586465048,-108.398,40.039,-834.473,108.887,0,0
1586465048,-219.727,-137.695,-881.836,-93.75,0,0
1586465048,-15.137,-222.168,-873.535,-190.918,0,0
1586465048,129.395,-131.836,-807.129,-11.719,0,0
1586465048,-44.922,20.996,-808.594,136.719,0,0
1586465048,-208.984,-145.996,-883.301,-7.812,0,0
1586465048,-59.57,-266.113,-881.836,-173.828,0,0
1586465048,132.324,-428.223,-808.105,-57.129,0,0
1586465048,23.438,-141.113,-751.465,133.789,0,0
1586465048,-199.707,133.789,-823.242,20.996,0,0
1586465048,-121.582,-327.148,-918.457,-161.621,0,0
1586465048,116.211,-83.984,-826.66,-111.816,0,0
1586465048,107.422,464.355,-712.402,96.68,0,0
1586465048,-158.691,172.363,-838.379,76.172,0,0
1586465048,-200.195,-564.941,-934.57,-133.789,0,0
1586465048,58.105,-439.453,-822.754,-189.941,0,0
1586465048,140.137,295.41,-716.797,7.812,0,0
1586465048,-90.332,225.098,-808.105,115.723,0,0
1586465048,-194.336,-629.883,-944.824,-59.57,0,0
1586465048,20.508,-713.867,-908.203,-205.078,0,0
1586465048,159.18,288.086,-744.141,-44.434,0,0
1586465048,-5.371,189.941,-835.938,142.09,0,0
1586465048,-188.477,-538.086,-893.555,3.418,0,0
1586465048,-73.73,-283.691,-787.598,-200.684,0,0
1586465048,122.559,357.91,-737.793,-125,0,0
1586465048,59.082,313.477,-814.453,90.332,0,0
1586465048,-170.898,-492.188,-918.457,33.203,0,0
1586465048,-148.438,-656.25,-864.258,-188.477,0,0
1586465048,91.797,214.355,-720.215,-179.688,0,0
1586465048,123.535,481.934,-746.094,83.984,0,0
1586465048,-103.516,-381.348,-865.723,134.766,0,0
1586465048,-169.434,-559.082,-866.211,-90.332,0,0
1586465048,41.016,124.512,-788.574,-187.012,0,0
1586465048,157.715,250.488,-783.203,45.898,0,0
1586465048,-27.344,-55.664,-865.234,159.18,0,0
1586465048,-201.172,-383.789,-918.457,-36.621,0,0
1586465048,-43.457,-141.602,-802.246,-156.738,0,0
1586465048,158.691,277.832,-733.887,2.441,0,0
1586465048,23.438,-130.371,-875.977,162.109,0,0
1586465048,-187.5,-450.195,-889.16,6.348,0,0
1586465048,-89.844,-61.035,-816.895,-188.477,0,0
1586465048,124.023,62.012,-808.105,-128.418,0,0
1586465048,66.895,-564.941,-930.664,116.699,0,0
1586465048,-202.148,-405.762,-876.465,56.152,0,0
1586465048,-170.898,-30.273,-844.727,-207.52,0,0
1586465048,77.148,-32.227,-816.406,-209.473,0,0
1586465048,69.336,326.66,-702.148,34.18,0,0
1586465048,-162.109,250.977,-787.598,83.008,0,0
1586465048,-225.586,-232.422,-899.414,-132.812,0,0
1586465048,-12.695,-197.266,-860.352,-175.293,0,0
1586465048,122.07,49.316,-811.523,38.574,0,0
1586465048,-80.078,-178.223,-871.582,108.887,0,0
1586465048,-246.094,-554.688,-904.785,-76.66,0,0
1586465048,-53.711,-826.66,-875,-196.289,0,0
1586465048,104.492,-220.703,-752.93,-91.797,0,0
1586465048,-68.848,439.453,-749.023,46.875,0,0
1586465048,-307.617,-231.934,-915.527,-62.988,0,0
1586465048,-249.023,-526.367,-912.598,-296.875,0,0
1586465048,-41.504,118.164,-765.625,-256.348,0,0
1586465048,-98.633,506.836,-745.605,-85.449,0,0
1586465048,-372.07,-125,-892.578,-155.273,0,0
1586465048,-420.41,-585.449,-926.27,-382.812,0,0
1586465048,-187.012,-172.852,-838.379,-429.688,0,0
1586465048,-129.395,271.973,-757.812,-218.75,0,0
1586465048,-386.23,-164.062,-850.098,-171.875,0,0
1586465048,-500,-958.496,-968.75,-369.141,0,0
1586465048,-295.898,-503.418,-858.887,-478.027,0,0
1586465048,-137.207,90.332,-806.641,-291.992,0,0
1586465048,-295.41,-57.617,-828.125,-138.672,0,0
1586465048,-460.938,-263.672,-877.93,-291.016,0,0
1586465048,-299.805,6.836,-828.125,-429.199,0,0
1586465048,-71.777,382.324,-747.559,-273.926,0,0
1586465048,-164.551,337.891,-784.18,-51.27,0,0
1586465048,-363.281,-4.395,-836.426,-108.398,0,0
1586465048,-272.949,-441.406,-923.828,-291.016,0,0
1586465048,-26.855,-142.578,-832.031,-244.141,0,0
1586465048,0.488,-302.734,-810.547,32.715,0,0
1586465048,-235.352,-676.758,-888.184,51.27,0,0
1586465048,-251.953,-183.105,-854.004,-162.598,0,0
1586465048,13.184,-5.371,-818.848,-198.242,0,0
1586465048,127.441,-41.992,-836.426,15.137,0,0
1586465048,-97.656,-193.848,-875.488,103.516,0,0
1586465048,-243.652,-237.793,-862.305,-87.891,0,0
1586465048,-16.113,-223.633,-875.488,-188.477,0,0
1586465048,181.641,12.695,-833.496,24.902,0,0
1586465048,27.832,93.75,-815.43,172.363,0,0
1586465048,-174.316,-438.965,-913.086,10.742,0,0
1586465048,-62.988,-585.449,-881.348,-156.738,0,0
1586465048,151.367,69.824,-737.793,-47.363,0,0
1586465048,120.605,469.238,-732.91,190.918,0,0
1586465048,-124.512,-63.477,-867.676,137.207,0,0
1586465048,-100.098,-729.98,-933.105,-77.148,0,0
1586465048,152.832,-375.977,-826.172,-71.289,0,0
1586465048,161.133,506.348,-671.387,152.344,0,0
1586465048,-63.965,152.832,-845.703,187.012,0,0
1586465048,-114.746,-682.617,-935.547,-18.066,0,0
1586465048,126.953,-300.293,-772.461,-94.727,0,0
1586465048,243.164,505.859,-717.773,125.488,0,0
1586465048,26.367,60.547,-859.375,249.512,0,0
1586465048,-121.582,-778.809,-921.387,60.547,0,0
1586465048,70.801,-546.387,-837.891,-103.027,0,0
1586465048,244.629,449.707,-683.594,57.129,0,0
1586465048,112.305,415.039,-769.043,236.816,0,0
1586465048,-84.473,-686.523,-948.242,122.559,0,0
1586465048,-8.301,-640.137,-900.879,-88.867,0,0
1586465048,212.891,483.398,-695.801,-19.531,0,0
1586465048,165.039,468.75,-757.324,216.797,0,0
1586465048,-86.426,-127.441,-913.086,144.043,0,0
1586465048,-73.73,-79.102,-839.844,-70.801,0,0
1586465048,181.641,260.742,-786.621,-60.059,0,0
1586465048,221.68,61.523,-874.512,179.688,0,0
1586465048,-18.555,-673.828,-937.5,191.406,0,0
1586465048,-106.934,-491.699,-858.887,-27.344,0,0
1586465048,90.332,291.504,-763.184,-117.188,0,0
1586465048,228.516,234.375,-773.438,86.426,0,0
1586465048,27.832,-152.832,-859.863,222.656,0,0
1586465048,-162.109,-83.008,-859.375,33.203,0,0
1586465048,14.16,35.645,-850.586,-114.258,0,0
1586465048,208.008,144.531,-761.23,33.203,0,0
1586465048,84.961,105.957,-765.137,215.332,0,0
1586465048,-138.184,-132.324,-869.629,83.984,0,0
1586465048,-68.848,-175.293,-854.004,-142.09,0,0
1586465048,171.875,-187.5,-844.727,-83.984,0,0
1586465048,134.277,-50.781,-793.457,132.324,0,0
1586465048,-119.141,-1.465,-843.262,98.145,0,0
1586465048,-125.488,-279.297,-880.859,-113.281,0,0
1586465048,131.348,-733.887,-883.301,-134.277,0,0
1586465048,184.082,-408.691,-842.773,78.125,0,0
1586465048,-80.566,274.414,-779.785,127.441,0,0
1586465048,-164.062,-266.602,-894.043,-44.922,0,0
1586465048,46.387,-283.203,-872.07,-162.598,0,0
1586465048,159.668,443.359,-716.797,22.461,0,0
1586465048,12.207,392.09,-777.832,177.246,0,0
1586465048,-140.137,-241.699,-900.391,3.418,0,0
1586465048,-23.438,-600.586,-912.598,-151.367,0,0
1586465048,161.133,-116.699,-795.41,-30.762,0,0
1586465048,61.523,539.062,-700.195,156.738,0,0
1586465048,-143.555,-160.645,-870.605,86.914,0,0
1586465048,-87.402,-924.805,-953.125,-104.98,0,0
1586465048,121.582,-168.945,-799.316,-99.609,0,0
1586465048,120.117,303.711,-795.41,118.164,0,0
1586465048,-115.234,-511.23,-939.453,117.676,0,0
1586465048,-157.715,-785.156,-931.641,-103.027,0,0
1586465048,68.848,177.246,-743.164,-183.105,0,0
1586465048,168.945,514.648,-743.164,63.965,0,0
1586465048,-62.012,-42.969,-870.117,157.715,0,0
1586465048,-198.73,-603.027,-924.805,-87.402,0,0
1586465048,-11.23,-324.707,-840.82,-196.289,0,0
1586465048,157.227,434.082,-712.891,-17.578,0,0
1586465048,30.273,-229.492,-831.055,156.25,0,0
1586465048,-187.988,-747.07,-916.016,10.254,0,0
1586465048,-80.078,15.137,-812.988,-172.852,0,0
1586465048,147.949,359.863,-763.672,-65.43,0,0
1586465048,49.316,216.309,-829.59,125.977,0,0
1586465048,-196.289,-26.855,-854.98,44.922,0,0
1586465048,-156.738,-319.336,-875.977,-166.992,0,0
1586465048,89.844,-201.66,-866.211,-151.367,0,0
1586465048,102.051,180.664,-846.191,79.102,0,0
1586465048,-137.207,-113.281,-876.465,112.305,0,0
1586465048,-187.988,-579.59,-910.156,-108.887,0,0
1586465048,63.965,-505.859,-917.48,-169.434,0,0
1586465048,169.922,-327.637,-860.84,47.852,0,0
1586465048,-74.219,-188.965,-817.383,131.836,0,0
1586465048,-220.703,-173.34,-893.066,-41.992,0,0
1586465048,-35.156,-388.672,-863.77,-208.496,0,0
1586465048,155.273,-82.031,-766.113,-67.871,0,0
1586465048,1.465,427.734,-761.719,125,0,0
1586465048,-212.402,21.973,-887.695,-11.719,0,0
1586465048,-98.145,-194.824,-852.539,-206.543,0,0
1586465048,119.629,230.469,-731.934,-124.512,0,0
1586465048,52.246,297.363,-798.34,91.309,0,0
1586465048,-190.43,-231.445,-879.883,41.016,0,0
1586465048,-166.992,-794.434,-900.391,-146.973,0,0
1586465048,77.637,-297.852,-780.273,-149.902,0,0
1586465048,114.746,539.551,-717.773,52.734,0,0
1586465048,-138.672,31.738,-857.422,83.496,0,0
1586465048,-217.773,-452.637,-919.434,-129.883,0,0
1586465048,7.324,-26.367,-812.5,-206.055,0,0
1586465048,127.93,539.551,-706.055,6.348,0,0
1586465048,-59.082,52.734,-864.258,134.766,0,0
1586465048,-212.891,-598.633,-932.617,-28.809,0,0
1586465048,-57.617,-262.207,-845.703,-183.105,0,0
1586465048,133.301,48.34,-839.844,-26.367,0,0
1586465048,17.09,-288.086,-889.648,152.832,0,0
1586465048,-190.43,-663.574,-935.547,34.668,0,0
1586465048,-89.844,-467.285,-853.027,-162.598,0,0
1586465048,112.793,-36.133,-800.293,-108.398,0,0
1586465048,74.707,-281.25,-870.117,119.141,0,0
1586465048,-156.738,-742.676,-933.105,80.078,0,0
1586465048,-186.035,-236.328,-850.098,-159.668,0,0
1586465048,56.152,288.574,-776.855,-184.57,0,0
1586465048,133.301,325.195,-819.336,62.012,0,0
1586465048,-105.957,72.266,-855.957,116.699,0,0
1586465048,-210.938,-0.488,-870.117,-100.098,0,0
1586465048,38.574,-12.695,-854.492,-166.016,0,0
1586465048,203.613,-342.773,-842.285,55.176,0,0
1586465048,-8.789,-397.461,-882.324,149.902,0,0
1586465048,-207.031,36.133,-842.773,-41.992,0,0
1586465048,-40.527,67.383,-838.867,-188.477,0,0
1586465048,175.781,317.383,-749.512,-33.203,0,0
1586465049,66.895,269.043,-750.977,152.832,0,0
1586465049,-173.828,-18.555,-846.68,30.273,0,0
1586465049,-113.77,-135.742,-879.883,-147.461,0,0
1586465049,135.742,40.039,-827.148,-101.562,0,0
1586465049,130.371,433.105,-723.145,108.398,0,0
1586465049,-112.305,91.309,-825.684,120.605,0,0
1586465049,-129.395,-602.051,-958.496,-98.145,0,0
1586465049,100.098,-575.684,-871.094,-150.879,0,0
1586465049,169.922,273.438,-712.402,78.125,0,0
1586465049,-35.645,276.367,-799.805,150.391,0,0
1586465049,-160.156,-578.613,-907.227,-59.082,0,0
1586465049,26.367,-560.059,-856.445,-182.129,0,0
1586465049,162.109,377.441,-705.078,10.742,0,0
1586465049,-9.766,416.016,-767.578,171.387,0,0
1586465049,-191.406,-316.895,-905.762,7.812,0,0
1586465049,-61.035,-513.672,-878.418,-159.668,0,0
1586465049,150.391,224.609,-731.934,-59.082,0,0
1586465049,60.547,451.172,-767.09,139.16,0,0
1586465049,-170.898,-357.91,-894.043,66.895,0,0
1586465049,-131.836,-518.555,-859.375,-136.23,0,0
1586465049,100.098,265.137,-746.094,-117.676,0,0
1586465049,123.535,415.527,-763.672,116.699,0,0
1586465049,-109.375,-446.777,-876.953,140.625,0,0
1586465049,-177.734,-584.961,-871.094,-88.379,0,0
1586465049,49.316,169.922,-768.555,-183.105,0,0
1586465049,147.461,302.734,-780.762,43.457,0,0
1586465049,-68.848,-304.688,-896.484,159.668,0,0
1586465049,-217.285,-465.82,-896.973,-57.617,0,0
1586465049,-28.809,7.324,-802.246,-205.566,0,0
1586465049,147.461,250,-777.832,-36.621,0,0
1586465049,2.441,-190.43,-881.836,126.465,0,0
1586465049,-184.57,-761.23,-911.133,6.836,0,0
1586465049,-71.289,-485.352,-848.145,-178.223,0,0
1586465049,149.414,-183.594,-855.469,-90.82,0,0
1586465049,94.238,-513.672,-913.086,150.391,0,0
1586465049,-158.691,-382.812,-871.582,64.453,0,0
1586465049,-153.32,-72.266,-847.168,-184.57,0,0
1586465049,90.82,-316.406,-877.441,-156.738,0,0
1586465049,98.145,-444.336,-863.281,73.73,0,0
1586465049,-164.062,8.789,-810.059,77.148,0,0
1586465049,-220.703,-54.688,-870.117,-152.832,0,0
1586465049,18.555,-14.648,-851.074,-200.684,0,0
1586465049,157.715,62.5,-812.988,33.691,0,0
1586465049,-67.871,4.395,-829.102,114.746,0,0
1586465049,-240.234,-251.953,-896.484,-60.059,0,0
1586465049,-37.109,-710.449,-910.156,-194.824,0,0
1586465049,146.484,-182.129,-789.551,-62.5,0,0
1586465049,10.742,477.539,-756.348,112.305,0,0
1586465049,-182.617,-46.875,-883.301,-9.277,0,0
1586465049,-93.262,-432.129,-887.207,-207.52,0,0
1586465049,112.305,158.203,-733.887,-127.441,0,0
1586465049,83.496,697.266,-667.969,83.008,0,0
1586465049,-132.812,127.93,-854.492,58.594,0,0
1586465049,-149.414,-750.488,-961.426,-137.695,0,0
1586465049,77.637,-407.715,-835.938,-182.617,0,0
1586465049,125.488,322.266,-751.465,30.273,0,0
1586465049,-118.652,-80.566,-868.652,98.145,0,0
1586465049,-196.777,-920.41,-949.219,-74.707,0,0
1586465049,15.137,-414.551,-822.754,-184.082,0,0
1586465049,147.949,337.402,-777.832,-8.301,0,0
1586465049,-47.363,-16.602,-820.312,130.371,0,0
1586465049,-226.562,-341.797,-862.793,-29.785,0,0
1586465049,-68.848,166.016,-799.805,-190.918,0,0
1586465049,133.789,571.289,-729.004,-55.176,0,0
1586465049,27.832,318.848,-790.527,144.531,0,0
1586465049,-184.57,-129.883,-870.117,46.387,0,0
1586465049,-111.328,-305.176,-875.488,-143.066,0,0
1586465049,124.512,69.336,-803.223,-104.004,0,0
1586465049,92.285,-208.984,-843.75,110.84,0,0
1586465049,-161.621,-595.703,-891.602,92.773,0,0
1586465049,-180.176,8.301,-809.57,-156.25,0,0
1586465049,65.43,297.852,-753.418,-190.43,0,0
1586465049,158.691,319.336,-749.023,62.012,0,0
1586465049,-60.547,268.555,-791.992,125.488,0,0
1586465049,-187.988,-58.594,-880.859,-90.332,0,0
1586465049,19.043,-344.727,-921.875,-180.176,0,0
1586465049,175.781,133.301,-797.363,8.789,0,0
1586465049,-15.137,278.809,-794.434,125,0,0
1586465049,-210.938,-400.391,-912.109,-23.438,0,0
1586465049,-63.477,-737.793,-940.43,-164.062,0,0
1586465049,148.926,-636.719,-853.027,-53.223,0,0
1586465049,31.25,96.68,-723.633,131.348,0,0
1586465049,-196.289,-4.883,-876.465,58.594,0,0
1586465049,-149.414,-448.73,-875.977,-151.855,0,0
1586465049,74.707,168.457,-712.402,-164.551,0,0
1586465049,86.914,742.676,-660.156,61.523,0,0
1586465049,-158.203,285.645,-817.871,79.59,0,0
1586465049,-203.125,-377.93,-907.715,-121.094,0,0
1586465049,17.578,42.48,-734.375,-187.5,0,0
1586465049,97.656,541.504,-713.379,26.367,0,0
1586465049,-102.051,-22.949,-876.465,124.512,0,0
1586465049,-221.68,-780.273,-919.922,-79.59,0,0
1586465049,-39.062,-414.062,-818.848,-200.684,0,0
1586465049,127.93,467.285,-709.961,-41.016,0,0
1586465049,-34.668,221.68,-812.988,107.91,0,0
1586465049,-244.629,-558.105,-909.668,-13.184,0,0
1586465049,-111.816,-402.832,-841.309,-191.406,0,0
1586465049,142.578,372.07,-690.43,-102.539,0,0
1586465049,83.496,288.086,-783.691,125.488,0,0
1586465049,-178.711,-643.555,-969.238,60.547,0,0
1586465049,-177.246,-505.859,-863.77,-167.969,0,0
1586465049,63.965,311.523,-733.887,-175.781,0,0
1586465049,97.168,99.121,-839.844,77.148,0,0
1586465049,-139.648,-575.195,-926.27,107.422,0,0
1586465049,-188.477,-433.105,-867.188,-95.703,0,0
1586465049,52.734,-39.062,-828.125,-148.926,0,0
1586465049,143.066,-243.164,-876.953,25.879,0,0
1586465049,-106.445,-534.668,-917.969,116.211,0,0
1586465049,-269.531,-226.074,-855.469,-95.215,0,0
1586465049,-58.594,-8.301,-840.332,-231.445,0,0
1586465049,152.832,50.781,-813.965,-43.945,0,0
1586465049,-22.461,21.484,-812.988,108.887,0,0
1586465049,-266.602,-45.898,-854.98,-46.387,0,0
1586465049,-143.555,-107.422,-854.492,-197.754,0,0
1586465049,101.074,-118.652,-835.449,-112.793,0,0
1586465049,45.41,60.059,-781.738,83.496,0,0
1586465049,-201.66,71.289,-810.547,53.223,0,0
1586465049,-188.477,-219.727,-889.16,-175.293,0,0
1586465049,58.105,-289.062,-833.008,-175.781,0,0
1586465049,100.586,-30.762,-774.902,26.367,0,0
1586465049,-137.207,9.277,-832.52,53.711,0,0
1586465049,-195.801,-289.551,-910.156,-122.07,0,0
1586465049,7.324,-665.039,-857.422,-203.125,0,0
1586465049,110.352,-62.012,-722.656,-27.344,0,0
1586465049,-78.125,448.242,-774.902,99.121,0,0
1586465049,-251.465,-123.535,-892.09,-53.223,0,0
1586465049,-82.52,-400.391,-889.16,-208.984,0,0
1586465049,112.305,93.262,-765.625,-65.918,0,0
1586465049,-6.836,417.969,-759.766,95.703,0,0
1586465049,-210.938,-291.016,-906.25,-1.953,0,0
1586465049,-142.09,-925.781,-937.5,-176.758,0,0
1586465049,84.473,-63.965,-745.605,-152.344,0,0
1586465049,76.66,539.062,-715.332,72.754,0,0
1586465049,-172.852,-107.91,-840.82,75.684,0,0
1586465049,-185.059,-632.324,-913.574,-127.93,0,0
1586465049,54.688,-79.59,-728.027,-159.18,0,0
1586465049,126.953,501.465,-660.645,57.129,0,0
1586465049,-85.938,-28.32,-878.906,95.215,0,0
1586465049,-215.82,-616.699,-928.223,-115.723,0,0
1586465049,-13.184,-270.02,-794.922,-197.266,0,0
1586465049,141.602,488.77,-655.273,-15.625,0,0
1586465049,-35.156,197.754,-794.922,115.723,0,0
1586465049,-212.891,-233.398,-858.398,-50.781,0,0
1586465049,-66.406,-11.719,-812.988,-208.496,0,0
1586465049,138.672,216.797,-793.945,-56.641,0,0
1586465049,67.871,-312.012,-807.617,145.508,0,0
1586465049,-168.945,-567.383,-837.402,36.133,0,0
1586465049,-155.273,-52.734,-798.828,-187.5,0,0
1586465049,87.402,127.93,-810.059,-145.508,0,0
1586465049,89.355,11.23,-878.418,87.402,0,0
1586465049,-148.438,-272.461,-851.562,86.426,0,0
1586465049,-177.734,-522.949,-876.953,-120.117,0,0
1586465049,69.824,-507.812,-901.367,-174.316,0,0
1586465049,141.113,-593.262,-898.438,58.594,0,0
1586465049,-114.746,-555.664,-887.207,126.465,0,0
1586465049,-241.211,-527.832,-909.668,-72.266,0,0
1586465049,-14.648,-499.023,-848.633,-186.035,0,0
1586465049,171.387,75.684,-699.707,-6.836,0,0
1586465049,-14.648,431.152,-722.168,137.695,0,0
1586465049,-195.801,-143.066,-896.973,-4.395,0,0
1586465049,-94.238,-320.312,-853.027,-194.336,0,0
1586465049,100.586,254.883,-712.891,-123.535,0,0
1586465049,38.574,210.449,-822.266,97.168,0,0
1586465049,-188.965,-332.031,-888.672,32.715,0,0
1586465049,-141.113,-815.918,-904.297,-165.039,0,0
1586465049,116.699,-414.062,-795.41,-146.484,0,0
1586465049,130.371,604.492,-632.324,63.965,0,0
1586465049,-107.422,190.43,-816.406,97.656,0,0
1586465049,-183.105,-430.664,-910.156,-129.883,0,0
1586465049,3.418,17.578,-761.719,-206.543,0,0
1586465049,121.094,671.875,-635.254,13.184,0,0
1586465049,-65.918,198.73,-817.871,125.488,0,0
1586465049,-220.703,-296.387,-888.672,-58.594,0,0
1586465049,-40.527,83.984,-773.438,-209.473,0,0
1586465049,161.133,285.645,-769.531,-41.016,0,0
1586465049,11.719,-176.27,-851.074,153.809,0,0
1586465049,-210.938,-701.172,-926.27,36.621,0,0
1586465049,-109.863,-154.297,-782.715,-179.688,0,0
1586465049,151.367,249.023,-753.418,-87.891,0,0
1586465049,127.441,-318.359,-882.324,157.227,0,0
1586465049,-163.086,-732.91,-931.152,54.688,0,0
1586465049,-194.824,-109.375,-784.668,-198.242,0,0
1586465049,80.078,416.992,-710.449,-188.477,0,0
1586465049,141.602,270.508,-781.25,63.477,0,0
1586465049,-100.098,-52.246,-827.637,91.309,0,0
1586465049,-184.082,-195.801,-869.629,-118.164,0,0
1586465049,41.504,-218.75,-858.398,-167.969,0,0
1586465049,161.133,39.551,-762.695,33.203,0,0
1586465049,-61.035,57.129,-783.203,141.113,0,0
1586465049,-198.242,-218.262,-862.793,-11.719,0,0
1586465049,-28.32,12.207,-796.387,-164.551,0,0
1586465049,116.211,-291.992,-812.012,-44.434,0,0
1586465049,-32.715,-486.328,-844.238,107.422,0,0
1586465049,-269.043,-116.699,-827.637,-41.992,0,0
1586465049,-182.617,-325.684,-895.02,-238.77,0,0
1586465049,59.57,-65.918,-809.57,-185.059,0,0
1586465049,20.996,327.148,-706.543,27.832,0,0
1586465049,-217.285,33.203,-829.59,4.395,0,0
1586465049,-225.586,-656.25,-950.684,-197.266,0,0
1586465049,18.555,-667.48,-870.605,-203.613,0,0
1586465049,66.895,243.652,-673.34,-0.977,0,0
1586465049,-174.805,329.59,-750,32.715,0,0
1586465049,-266.602,-433.105,-884.766,-138.672,0,0
1586465049,-43.945,-389.648,-779.785,-244.629,0,0
1586465049,127.93,519.531,-620.605,-65.918,0,0
1586465049,-37.109,394.043,-749.512,95.215,0,0
1586465049,-234.375,-393.066,-883.789,-66.406,0,0
1586465049,-113.281,-375.977,-828.125,-246.094,0,0
1586465049,101.074,142.09,-750.488,-118.164,0,0
1586465049,14.648,132.812,-801.27,89.844,0,0
1586465049,-197.266,-585.938,-900.879,-4.883,0,0
1586465049,-136.719,-769.043,-880.371,-195.312,0,0
1586465049,99.121,88.867,-718.75,-130.371,0,0
1586465049,97.168,312.012,-737.793,84.473,0,0
1586465049,-155.273,-386.23,-869.141,61.523,0,0
1586465049,-210.449,-480.957,-847.168,-155.273,0,0
1586465049,24.414,34.18,-759.766,-219.727,0,0
1586465049,129.883,208.008,-758.789,24.902,0,0
1586465049,-91.797,-526.855,-885.254,120.605,0,0
1586465049,-233.398,-608.398,-861.328,-95.215,0,0
1586465049,-24.902,104.004,-755.371,-207.52,0,0
1586465049,144.531,235.352,-784.18,-31.738,0,0
1586465049,-24.902,-239.746,-888.672,128.418,0,0
1586465049,-221.191,-492.188,-872.07,-21.484,0,0
1586465049,-101.562,-312.988,-844.727,-214.355,0,0
1586465049,106.934,-254.883,-841.797,-104.98,0,0
1586465049,37.109,-597.656,-890.137,111.816,0,0
1586465049,-204.59,-519.043,-880.371,27.832,0,0
1586465049,-178.711,-113.281,-859.375,-172.852,0,0
1586465049,87.402,-211.914,-826.66,-151.855,0,0
1586465049,112.793,-33.691,-765.625,73.73,0,0
1586465049,-143.555,122.07,-811.035,83.496,0,0
1586465049,-207.031,-196.289,-885.254,-154.297,0,0
1586465049,21.973,-142.578,-866.211,-188.477,0,0
1586465049,147.461,46.875,-817.383,45.898,0,0
1586465049,-85.938,17.578,-818.848,93.75,0,0
1586465049,-244.141,-194.824,-876.953,-77.637,0,0
1586465049,-44.922,-324.219,-863.281,-204.102,0,0
1586465049,109.375,177.734,-715.82,-61.035,0,0
1586465049,-21.973,246.582,-778.809,124.023,0,0
1586465049,-208.984,-329.102,-901.367,2.441,0,0
1586465049,-92.285,-788.574,-871.582,-146.973,0,0
1586465049,134.766,-231.445,-736.328,-77.148,0,0
1586465049,76.172,495.117,-700.195,100.098,0,0
1586465049,-189.941,-160.645,-893.555,57.129,0,0
1586465049,-191.895,-535.156,-930.664,-133.789,0,0
1586465049,62.5,-84.473,-791.016,-123.535,0,0
1586465049,83.984,379.395,-708.984,73.73,0,0
1586465049,-137.695,-148.926,-807.129,112.305,0,0
1586465049,-221.191,-750.977,-923.828,-102.051,0,0
1586465049,-5.371,-284.18,-818.359,-194.336,0,0
1586465049,136.719,271.484,-696.777,20.508,0,0
1586465049,-62.988,-188.477,-833.008,126.953,0,0
1586465049,-223.145,-833.008,-954.59,-55.664,0,0
1586465049,-61.523,-291.992,-808.105,-217.285,0,0
1586465049,132.812,243.164,-736.816,-61.035,0,0
1586465050,0.977,85.938,-787.598,140.137,0,0
1586465050,-226.562,-315.918,-861.328,14.16,0,0
1586465050,-145.508,-373.047,-875.488,-184.082,0,0
1586465050,97.168,-184.57,-808.105,-115.234,0,0
1586465050,54.199,33.691,-773.926,93.75,0,0
1586465050,-187.988,-270.508,-860.84,70.312,0,0
1586465050,-187.012,-330.566,-859.375,-154.785,0,0
1586465050,47.363,308.594,-693.359,-195.801,0,0
1586465050,130.371,-150.391,-825.195,65.918,0,0
1586465050,-106.445,-732.91,-901.855,106.934,0,0
1586465050,-237.305,-89.844,-782.227,-120.117,0,0
1586465050,-13.672,37.598,-806.152,-194.336,0,0
1586465050,150.879,36.133,-776.367,-2.441,0,0
1586465050,-35.645,29.297,-777.832,130.859,0,0
1586465050,-227.051,-388.184,-858.398,-9.766,0,0
1586465050,-64.941,-565.918,-922.852,-157.227,0,0
1586465050,142.578,-595.703,-831.543,-37.598,0,0
1586465050,17.09,-40.039,-686.035,129.883,0,0
1586465050,-193.359,-168.945,-875.488,24.414,0,0
1586465050,-115.723,-540.527,-869.141,-188.477,0,0
1586465050,110.84,145.996,-687.988,-152.344,0,0
1586465050,95.215,615.723,-675.293,68.359,0,0
1586465050,-163.574,179.688,-831.055,50.293,0,0
1586465050,-196.777,-504.883,-883.301,-123.047,0,0
1586465050,53.711,-57.617,-682.617,-181.641,0,0
1586465050,145.996,638.184,-645.996,11.719,0,0
1586465050,-104.492,-5.859,-856.934,118.164,0,0
1586465050,-237.793,-511.719,-876.465,-89.355,0,0
1586465050,-5.859,-221.68,-765.137,-184.082,0,0
1586465050,182.617,343.262,-668.457,23.438,0,0
1586465050,-32.715,327.148,-761.23,128.418,0,0
1586465050,-248.535,-617.676,-892.578,-49.316,0,0
1586465050,-126.953,-475.586,-781.25,-229.004,0,0
1586465050,60.547,475.098,-645.996,-152.832,0,0
1586465050,-1.465,315.918,-775.879,68.359,0,0
1586465050,-251.953,-300.293,-885.742,-21.973,0,0
1586465050,-219.238,-212.891,-804.199,-249.023,0,0
1586465050,12.695,270.996,-705.078,-204.59,0,0
1586465050,19.531,59.57,-789.062,24.414,0,0
1586465050,-211.914,-658.203,-930.664,51.27,0,0
1586465050,-276.855,-398.438,-807.129,-171.387,0,0
1586465050,-0.488,251.465,-697.266,-248.535,0,0
1586465050,125,2.93,-801.27,-4.395,0,0
1586465050,-123.047,-638.184,-927.246,87.891,0,0
1586465050,-270.02,-418.945,-850.586,-142.578,0,0
1586465050,-74.219,72.754,-764.648,-239.746,0,0
1586465050,123.047,305.176,-714.355,-50.293,0,0
1586465050,-35.645,186.523,-740.723,89.355,0,0
1586465050,-252.93,-87.402,-828.125,-36.133,0,0
1586465050,-119.629,-105.469,-826.66,-201.66,0,0
1586465050,126.465,-91.309,-794.434,-116.699,0,0
1586465050,54.688,-58.105,-749.023,75.684,0,0
1586465050,-189.941,-72.754,-797.852,20.996,0,0
1586465050,-142.09,-175.293,-847.656,-155.762,0,0
1586465050,92.773,-311.523,-767.09,-171.875,0,0
1586465050,68.848,85.938,-638.672,31.25,0,0
1586465050,-181.152,310.059,-729.98,57.617,0,0
1586465050,-236.816,-367.676,-893.555,-139.16,0,0
1586465050,-6.836,-453.125,-833.496,-209.961,0,0
1586465050,130.371,82.52,-723.633,-7.812,0,0
1586465050,-119.629,-214.355,-871.094,83.008,0,0
1586465050,-113.77,-98.145,-770.02,19.531,0,0
1586465050,-0.977,314.941,-700.684,109.863,0,0
1586465050,-201.172,-538.574,-899.414,34.668,0,0
1586465050,-104.492,-878.418,-860.84,-195.312,0,0
1586465050,114.746,-84.473,-691.895,-153.32,0,0
1586465050,71.777,319.824,-677.246,74.219,0,0
1586465050,-172.852,-428.223,-847.168,53.223,0,0
1586465050,-173.34,-767.09,-889.648,-136.23,0,0
1586465050,50.293,10.254,-694.824,-178.223,0,0
1586465050,102.539,237.305,-698.242,24.414,0,0
1586465050,-117.188,-551.27,-878.418,88.379,0,0
1586465050,-223.145,-798.34,-867.676,-102.051,0,0
1586465050,12.695,-109.375,-747.559,-184.082,0,0
1586465050,164.062,-43.457,-782.227,0.977,0,0
1586465050,-53.711,-513.184,-842.285,126.953,0,0
1586465050,-240.723,-578.125,-842.773,-35.156,0,0
1586465050,-83.008,-126.953,-788.086,-209.961,0,0
1586465050,106.445,359.863,-718.262,-78.125,0,0
1586465050,19.531,-237.793,-818.848,113.77,0,0
1586465050,-216.797,-634.277,-867.676,16.602,0,0
1586465050,-168.457,60.059,-766.113,-197.266,0,0
1586465050,89.844,225.586,-811.523,-145.02,0,0
1586465050,83.008,273.926,-815.43,92.773,0,0
1586465050,-179.688,199.219,-788.574,32.227,0,0
1586465050,-228.516,-75.195,-848.633,-164.551,0,0
1586465050,44.922,-328.125,-889.648,-158.203,0,0
1586465050,132.812,-360.84,-855.469,54.688,0,0
1586465050,-87.891,-182.129,-812.012,105.957,0,0
1586465050,-203.125,-345.703,-896.484,-80.566,0,0
1586465050,-27.832,-457.031,-875.488,-184.082,0,0
1586465050,124.023,-4.883,-757.812,-29.785,0,0
1586465050,-56.152,476.562,-698.242,84.473,0,0
1586465050,-239.258,49.316,-837.891,-50.293,0,0
1586465050,-84.473,-203.125,-835.449,-200.195,0,0
1586465050,123.047,241.211,-681.152,-101.074,0,0
1586465050,46.875,470.703,-703.613,109.375,0,0
1586465050,-192.871,-35.156,-857.91,32.227,0,0
1586465050,-167.48,-542.48,-906.25,-182.129,0,0
1586465050,83.984,-73.73,-729.004,-142.578,0,0
1586465050,107.91,436.035,-690.918,77.637,0,0
1586465050,-125,-221.191,-888.672,83.984,0,0
1586465050,-182.129,-871.094,-898.926,-103.027,0,0
1586465050,36.621,-300.781,-750,-174.316,0,0
1586465050,143.066,576.172,-623.535,26.855,0,0
1586465050,-45.898,174.805,-783.203,141.113,0,0
1586465050,-190.918,-423.828,-927.246,-48.34,0,0
1586465050,-43.945,-2.441,-751.953,-211.914,0,0
1586465050,135.742,479.492,-664.062,-51.27,0,0
1586465050,-9.766,7.812,-824.219,141.113,0,0
1586465050,-217.285,-859.863,-916.992,17.09,0,0
1586465050,-97.656,-538.574,-801.758,-197.754,0,0
1586465050,124.023,179.199,-722.168,-118.164,0,0
1586465050,59.57,-243.164,-848.145,104.98,0,0
1586465050,-186.035,-795.41,-933.594,32.227,0,0
1586465050,-160.645,-262.207,-805.176,-189.453,0,0
1586465050,102.539,169.922,-777.832,-144.043,0,0
1586465050,127.93,-137.695,-798.34,89.844,0,0
1586465050,-139.16,-433.105,-837.891,77.148,0,0
1586465050,-214.844,-156.25,-821.289,-140.625,0,0
1586465050,47.852,288.086,-710.449,-171.387,0,0
1586465050,198.73,312.012,-749.023,63.965,0,0
1586465050,-44.922,-153.809,-841.309,133.301,0,0
1586465050,-244.629,-308.594,-844.727,-62.988,0,0
1586465050,-75.684,7.324,-806.641,-193.848,0,0
1586465050,132.324,-263.184,-775.391,-27.344,0,0
1586465050,-7.324,-322.266,-764.648,140.625,0,0
1586465050,-233.398,-15.137,-816.895,7.324,0,0
1586465050,-112.305,-182.129,-853.516,-186.523,0,0
1586465050,117.188,123.535,-758.789,-116.699,0,0
1586465050,62.5,345.215,-738.77,130.859,0,0
1586465050,-173.34,-115.723,-860.352,97.656,0,0
1586465050,-153.809,-437.5,-884.277,-138.184,0,0
1586465050,67.383,-95.703,-806.152,-172.852,0,0
1586465050,88.867,228.516,-752.441,39.551,0,0
1586465050,-129.395,-68.359,-824.219,80.566,0,0
1586465050,-208.008,-669.434,-934.082,-89.844,0,0
1586465050,14.648,-756.348,-877.441,-184.57,0,0
1586465050,133.301,322.266,-628.418,-25.879,0,0
1586465050,-72.266,518.066,-750,123.047,0,0
1586465050,-237.793,-382.324,-881.836,-31.738,0,0
1586465050,-75.195,-297.363,-769.043,-194.824,0,0
1586465050,133.789,562.5,-643.555,-52.246,0,0
1586465050,16.602,483.887,-735.84,132.324,0,0
1586465050,-212.891,-177.246,-863.281,18.555,0,0
1586465050,-145.02,-310.059,-856.445,-168.945,0,0
1586465050,106.934,-28.32,-815.43,-95.703,0,0
1586465050,83.984,42.48,-799.805,127.441,0,0
1586465050,-154.297,-590.82,-880.859,123.047,0,0
1586465050,-191.895,-647.461,-871.094,-117.188,0,0
1586465050,39.062,266.602,-721.68,-163.574,0,0
1586465050,131.348,440.43,-697.754,72.754,0,0
1586465050,-120.117,-63.477,-847.168,127.441,0,0
1586465050,-246.582,-108.398,-816.406,-86.426,0,0
1586465050,-28.809,197.266,-730.957,-197.266,0,0
1586465050,156.738,171.875,-789.062,4.395,0,0
1586465050,5.859,-55.176,-842.773,144.043,0,0
1586465050,-192.871,-203.613,-842.773,-17.09,0,0
1586465050,-50.293,-339.844,-862.793,-173.828,0,0
1586465050,181.152,-387.695,-845.215,-51.758,0,0
1586465050,63.477,-425.781,-863.77,137.207,0,0
1586465050,-176.27,-525.879,-870.117,44.434,0,0
1586465050,-111.816,-284.18,-804.688,-157.715,0,0
1586465050,134.766,-133.301,-827.637,-120.117,0,0
1586465050,132.324,-748.047,-894.531,119.629,0,0
1586465050,-140.137,-463.867,-811.035,88.867,0,0
1586465050,-204.102,-112.305,-854.492,-152.344,0,0
1586465050,29.297,-155.273,-868.164,-190.918,0,0
1586465050,132.324,191.406,-740.234,35.645,0,0
1586465050,-77.637,215.332,-753.418,131.348,0,0
1586465050,-209.473,-333.496,-889.648,-33.691,0,0
1586465050,-7.812,-816.895,-883.301,-161.621,0,0
1586465050,176.758,-187.012,-713.867,0.488,0,0
1586465050,5.371,450.195,-695.801,144.531,0,0
1586465050,-206.543,-145.508,-858.887,1.465,0,0
1586465050,-82.031,-429.688,-855.957,-161.133,0,0
1586465050,146.484,138.184,-678.223,-62.012,0,0
1586465050,77.637,531.738,-630.859,141.113,0,0
1586465050,-159.668,-79.59,-855.469,69.336,0,0
1586465050,-147.461,-321.777,-883.789,-120.605,0,0
1586465050,105.469,270.02,-681.641,-128.906,0,0
1586465050,130.371,594.238,-642.09,59.082,0,0
1586465050,-127.441,-265.137,-879.395,78.125,0,0
1586465050,-199.707,-859.375,-941.406,-125,0,0
1586465050,42.969,-346.191,-799.805,-181.152,0,0
1586465050,169.434,176.27,-718.262,33.203,0,0
1586465050,-50.293,-189.453,-789.551,140.137,0,0
1586465050,-189.941,-658.691,-875.977,-44.434,0,0
1586465050,-38.574,45.898,-724.609,-207.52,0,0
1586465050,123.047,626.465,-619.141,-43.457,0,0
1586465050,0.488,-80.078,-781.738,147.461,0,0
1586465050,-218.262,-660.645,-892.09,13.184,0,0
1586465050,-111.816,-143.066,-787.598,-168.945,0,0
1586465050,145.02,326.172,-677.246,-60.547,0,0
1586465050,79.59,15.625,-774.902,166.992,0,0
1586465050,-186.523,-507.324,-864.258,60.059,0,0
1586465050,-180.176,-112.305,-763.672,-184.57,0,0
1586465050,72.266,184.57,-747.559,-165.039,0,0
1586465050,130.371,-214.844,-774.414,95.215,0,0
1586465050,-101.562,-357.422,-801.27,121.094,0,0
1586465050,-203.125,-135.742,-812.012,-123.047,0,0
1586465050,14.16,-34.668,-773.926,-200.195,0,0
1586465050,158.691,84.961,-767.09,8.301,0,0
1586465050,-53.711,159.18,-727.539,111.328,0,0
1586465050,-224.121,-159.668,-830.078,-41.016,0,0
1586465050,-42.969,-466.309,-877.441,-179.199,0,0
1586465050,153.809,-312.988,-807.617,-64.453,0,0
1586465050,28.32,-102.051,-764.16,116.699,0,0
1586465050,-203.613,-447.754,-849.609,30.762,0,0
1586465050,-109.375,-896.484,-943.359,-158.691,0,0
1586465050,133.789,-641.113,-852.539,-118.652,0,0
1586465050,71.289,155.273,-691.406,99.609,0,0
1586465050,-183.105,-10.254,-813.477,71.777,0,0
1586465050,-187.012,-491.211,-874.512,-137.207,0,0
1586465050,46.875,-90.332,-727.051,-158.691,0,0
1586465050,106.445,568.359,-601.562,66.895,0,0
1586465050,-134.277,266.113,-742.676,131.836,0,0
1586465050,-216.309,-512.207,-916.504,-71.289,0,0
1586465050,17.578,-589.844,-855.469,-168.945,0,0
1586465050,130.371,-83.496,-755.371,6.836,0,0
1586465050,-59.57,-92.285,-803.223,142.09,0,0
1586465050,-228.516,-868.164,-933.105,12.695,0,0
1586465050,-84.961,-725.586,-859.863,-187.5,0,0
1586465050,125,406.738,-592.285,-88.867,0,0
1586465050,23.926,344.727,-704.59,119.141,0,0
1586465050,-226.562,-566.895,-904.297,34.18,0,0
1586465050,-175.293,-312.012,-765.137,-171.875,0,0
1586465050,70.312,395.508,-630.859,-163.086,0,0
1586465050,82.52,227.539,-738.281,81.055,0,0
1586465050,-171.875,-427.734,-934.082,111.328,0,0
1586465050,-222.168,-601.074,-906.738,-111.328,0,0
1586465050,29.785,-370.605,-845.215,-189.453,0,0
1586465050,132.324,-278.809,-814.941,49.316,0,0
1586465050,-106.934,-282.715,-801.27,137.207,0,0
1586465050,-273.438,-181.152,-830.078,-89.844,0,0
1586465050,-54.688,-139.16,-832.52,-207.52,0,0
1586465050,144.531,-387.207,-858.887,-13.184,0,0
1586465050,-27.344,-658.203,-883.789,128.906,0,0
1586465050,-243.652,-247.559,-797.852,-39.062,0,0
1586465050,-96.68,-66.406,-805.176,-193.359,0,0
1586465050,134.766,73.73,-763.184,-110.352,0,0
1586465050,43.945,188.965,-737.793,82.031,0,0
1586465050,-201.172,-330.566,-891.602,45.41,0,0
1586465050,-176.27,-567.383,-893.555,-154.297,0,0
1586465050,104.98,-635.254,-820.801,-143.066,0,0
1586465050,106.445,-266.602,-716.309,77.637,0,0
1586465050,-186.523,173.34,-733.887,93.75,0,0
1586465050,-229.004,-283.203,-869.141,-118.164,0,0
1586465050,20.996,-68.848,-737.793,-220.703,0,0
1586465050,136.23,555.664,-622.559,-8.789,0,0
1586465050,-62.5,211.914,-799.805,109.863,0,0
1586465050,-226.074,-547.363,-932.129,-69.336,0,0
1586465050,-35.645,-356.934,-830.078,-222.168,0,0
1586465050,151.855,271.973,-701.172,-108.398,0,0
1586465050,-27.832,-47.363,-831.055,79.59,0,0
1586465050,-238.281,-785.645,-947.266,-4.883,0,0
1586465051,-151.855,-912.598,-910.156,-198.73,0,0
1586465051,74.219,-51.27,-709.473,-170.41,0,0
1586465051,20.508,481.934,-689.941,35.645,0,0
1586465051,-240.234,-233.887,-845.703,-11.23,0,0
1586465051,-216.309,-434.57,-825.684,-221.68,0,0
1586465051,6.348,311.035,-667.969,-236.328,0,0
1586465051,-0.977,541.504,-696.777,-29.785,0,0
1586465051,-240.234,-155.762,-837.891,3.418,0,0
1586465051,-314.941,-465.332,-853.027,-241.699,0,0
1586465051,-128.906,-194.336,-843.262,-348.145,0,0
1586465051,-29.297,16.602,-802.734,-158.203,0,0
1586465051,-214.355,-456.055,-843.75,-28.32,0,0
1586465051,-389.648,-723.145,-885.742,-214.844,0,0
1586465051,-238.281,42.48,-750.488,-395.508,0,0
1586465051,-42.48,390.625,-710.938,-259.766,0,0
1586465051,-171.875,110.352,-794.922,-70.801,0,0
1586465051,-367.188,-198.73,-862.305,-165.527,0,0
1586465051,-300.781,-20.02,-797.363,-381.836,0,0
1586465051,-57.617,140.625,-778.809,-290.527,0,0
1586465051,-40.527,-108.887,-881.836,-2.93,0,0
1586465051,-284.668,-259.277,-871.582,-38.574,0,0
1586465051,-285.645,-255.371,-850.098,-259.277,0,0
1586465051,-11.23,-430.664,-895.02,-270.508,0,0
1586465051,77.148,-504.883,-881.836,-14.648,0,0
1586465051,-145.996,-359.375,-848.633,85.938,0,0
1586465051,-248.047,-639.16,-905.273,-97.656,0,0
1586465051,20.508,-573.242,-812.5,-187.5,0,0
1586465051,193.359,66.895,-657.715,16.602,0,0
1586465051,-16.113,226.074,-718.75,157.227,0,0
1586465051,-170.898,-221.68,-867.188,5.859,0,0
1586465051,-6.348,-355.469,-819.336,-139.16,0,0
1586465051,185.547,88.379,-665.039,-26.367,0,0
1586465051,65.43,387.207,-651.367,180.664,0,0
1586465051,-144.531,-81.543,-793.457,104.492,0,0
1586465051,-37.109,-598.145,-895.996,-107.91,0,0
1586465051,181.641,-281.738,-746.094,-58.105,0,0
1586465051,144.043,303.223,-645.996,160.645,0,0
1586465051,-77.637,-184.082,-851.074,162.109,0,0
1586465051,-78.125,-869.141,-886.23,-31.738,0,0
1586465051,148.438,-498.535,-743.652,-91.309,0,0
1586465051,211.426,268.555,-653.32,111.328,0,0
1586465051,-13.184,68.359,-779.785,206.543,0,0
1586465051,-102.051,-523.926,-903.32,41.504,0,0
1586465051,116.211,-184.57,-765.137,-95.215,0,0
1586465051,239.258,414.062,-640.625,51.27,0,0
1586465051,41.016,101.562,-779.785,218.262,0,0
1586465051,-165.039,-742.188,-926.27,69.824,0,0
1586465051,-27.832,-543.457,-832.52,-111.816,0,0
1586465051,205.078,18.555,-757.812,-2.441,0,0
1586465051,115.723,-361.816,-849.121,211.914,0,0
1586465051,-114.258,-830.078,-915.527,123.047,0,0
1586465051,-84.473,-314.941,-794.922,-117.676,0,0
1586465051,140.625,218.75,-717.285,-106.934,0,0
1586465051,169.922,-8.789,-757.812,166.016,0,0
1586465051,-73.73,-437.012,-812.5,197.266,0,0
1586465051,-141.602,-328.125,-815.43,-55.176,0,0
1586465051,96.191,9.277,-780.273,-115.234,0,0
1586465051,227.051,179.199,-750.488,110.84,0,0
1586465051,10.254,-197.754,-813.477,193.359,0,0
1586465051,-154.785,-413.574,-827.148,-6.348,0,0
1586465051,47.852,22.949,-762.207,-143.066,0,0
1586465051,229.004,-288.086,-824.219,33.203,0,0
1586465051,51.758,-455.078,-834.961,232.422,0,0
1586465051,-163.086,-45.41,-782.715,83.008,0,0
1586465051,-57.129,-182.617,-851.074,-132.812,0,0
1586465051,173.828,-14.16,-782.715,-43.457,0,0
1586465051,128.906,337.402,-684.082,186.035,0,0
1586465051,-157.715,120.605,-799.316,137.207,0,0
1586465051,-157.227,-351.562,-876.953,-80.078,0,0
1586465051,105.469,-350.098,-862.793,-92.773,0,0
1586465051,128.906,-138.672,-818.848,139.648,0,0
1586465051,-140.625,-236.816,-842.285,167.48,0,0
1586465051,-199.219,-625,-874.023,-57.617,0,0
1586465051,67.871,-632.812,-855.957,-156.25,0,0
1586465051,159.18,106.934,-734.863,32.227,0,0
1586465051,-65.918,319.824,-717.773,166.992,0,0
1586465051,-188.477,-511.23,-905.762,45.898,0,0
1586465051,-2.93,-745.605,-877.93,-113.281,0,0
1586465051,162.109,176.27,-650.879,-31.25,0,0
1586465051,35.645,266.602,-723.633,178.711,0,0
1586465051,-194.824,-355.957,-851.562,68.359,0,0
1586465051,-104.492,-420.41,-830.078,-149.902,0,0
1586465051,153.809,-94.238,-783.691,-90.332,0,0
1586465051,109.863,-93.75,-764.648,117.676,0,0
1586465051,-118.652,-674.316,-873.047,136.719,0,0
1586465051,-119.629,-743.164,-873.047,-81.543,0,0
1586465051,98.633,66.895,-688.477,-153.809,0,0
1586465051,146.973,275.391,-696.777,83.008,0,0
1586465051,-98.633,-126.953,-817.383,144.531,0,0
1586465051,-196.289,-226.074,-793.457,-49.316,0,0
1586465051,23.438,118.164,-690.918,-166.016,0,0
1586465051,159.668,207.031,-721.191,12.207,0,0
1586465051,-47.852,-99.121,-841.797,182.129,0,0
1586465051,-226.074,-340.332,-832.031,23.438,0,0
1586465051,-27.832,-368.164,-807.129,-156.738,0,0
1586465051,181.641,-296.875,-803.711,-40.039,0,0
1586465051,48.828,-768.066,-885.742,187.5,0,0
1586465051,-192.383,-695.312,-819.824,101.562,0,0
1586465051,-134.766,-217.285,-789.062,-132.812,0,0
1586465051,114.746,-90.332,-717.773,-125,0,0
1586465051,105.957,224.609,-603.516,101.562,0,0
1586465051,-155.762,174.316,-722.656,103.516,0,0
1586465051,-190.918,-258.789,-855.957,-114.746,0,0
1586465051,80.566,-235.84,-788.574,-174.805,0,0
1586465051,165.039,279.297,-602.051,27.832,0,0
1586465051,-86.914,164.062,-764.16,123.047,0,0
1586465051,-217.285,-444.336,-896.484,-65.918,0,0
1586465051,9.766,-823.242,-874.023,-181.641,0,0
1586465051,165.527,-454.102,-787.109,-14.648,0,0
1586465051,-33.203,209.961,-703.613,145.508,0,0
1586465051,-214.355,-202.637,-852.539,16.602,0,0
1586465051,-78.613,-476.562,-850.586,-197.266,0,0
1586465051,155.762,114.746,-687.5,-104.98,0,0
1586465051,60.547,371.094,-707.52,107.91,0,0
1586465051,-183.594,-362.305,-914.551,62.5,0,0
1586465051,-126.953,-597.168,-893.066,-130.859,0,0
1586465051,129.395,245.605,-643.555,-160.645,0,0
1586465051,145.02,662.598,-636.23,56.641,0,0
1586465051,-125,-269.043,-899.414,119.629,0,0
1586465051,-182.129,-935.059,-943.848,-104.492,0,0
1586465051,61.523,-435.059,-797.852,-207.52,0,0
1586465051,193.359,188.477,-704.59,41.992,0,0
1586465051,-57.129,-241.211,-825.684,151.855,0,0
1586465051,-227.051,-794.434,-910.156,-62.012,0,0
1586465051,-5.371,-153.809,-788.086,-225.098,0,0
1586465051,206.055,242.676,-760.742,-28.809,0,0
1586465051,92.773,76.172,-791.504,180.664,0,0
1586465051,-141.113,-333.008,-869.629,31.738,0,0
1586465051,-104.492,-398.438,-894.043,-205.566,0,0
1586465051,129.395,-59.082,-811.523,-143.066,0,0
1586465051,91.797,-98.633,-809.57,111.328,0,0
1586465051,-169.434,-335.938,-849.121,57.617,0,0
1586465051,-195.312,-188.477,-825.195,-199.707,0,0
1586465051,37.598,22.949,-823.242,-210.449,0,0
1586465051,69.824,-250.977,-812.012,32.715,0,0
1586465051,-199.219,-235.84,-767.09,56.641,0,0
1586465051,-271.973,-12.695,-808.105,-140.625,0,0
1586465051,-8.301,-51.758,-846.191,-199.219,0,0
1586465051,120.117,205.078,-774.414,-21.973,0,0
1586465051,-83.496,263.184,-750.488,117.188,0,0
1586465051,-232.91,-25.391,-835.449,-25.391,0,0
1586465051,-48.34,-153.809,-845.703,-195.312,0,0
1586465051,155.762,-91.309,-813.477,-69.336,0,0
1586465051,0.488,57.129,-775.879,108.887,0,0
1586465051,-237.305,-229.492,-849.609,-10.254,0,0
1586465051,-100.098,-681.152,-917.969,-196.777,0,0
1586465051,159.668,-564.941,-830.566,-129.883,0,0
1586465051,72.754,192.871,-674.805,86.426,0,0
1586465051,-194.824,109.863,-820.801,52.246,0,0
1586465051,-188.477,-503.418,-885.742,-149.902,0,0
1586465051,68.848,-125,-750.488,-195.801,0,0
1586465051,137.207,492.676,-679.688,25.879,0,0
1586465051,-97.168,80.078,-820.801,119.629,0,0
1586465051,-206.055,-428.223,-899.902,-95.703,0,0
1586465051,4.395,-219.238,-834.473,-205.566,0,0
1586465051,157.227,230.957,-751.465,-2.441,0,0
1586465051,-14.648,230.957,-778.809,151.855,0,0
1586465051,-180.176,-627.441,-916.992,13.672,0,0
1586465051,-39.551,-701.66,-916.504,-203.125,0,0
1586465051,154.785,207.52,-767.578,-65.43,0,0
1586465051,54.688,290.039,-763.672,163.574,0,0
1586465051,-135.742,-268.066,-876.465,51.27,0,0
1586465051,-40.527,-213.379,-849.609,-160.645,0,0
1586465051,177.246,275.391,-773.926,-164.551,0,0
1586465051,142.578,208.984,-799.316,63.965,0,0
1586465051,-114.258,-234.863,-913.574,80.566,0,0
1586465051,-105.469,-370.605,-888.184,-136.23,0,0
1586465051,147.949,-99.609,-835.449,-158.203,0,0
1586465051,215.332,-176.27,-895.996,53.711,0,0
1586465051,-24.414,-632.812,-932.129,94.727,0,0
1586465051,-158.203,-281.738,-853.027,-100.098,0,0
1586465051,86.426,251.465,-785.156,-211.914,0,0
1586465051,251.953,183.105,-761.719,-15.625,0,0
1586465051,48.34,-98.145,-824.219,143.066,0,0
1586465051,-151.367,-194.336,-853.516,-17.578,0,0
1586465051,-19.531,85.449,-803.223,-221.68,0,0
1586465051,199.707,205.566,-733.887,-101.074,0,0
1586465051,90.332,215.82,-723.633,134.766,0,0
1586465051,-156.25,-17.578,-867.676,43.945,0,0
1586465051,-80.078,-352.051,-893.555,-163.086,0,0
1586465051,172.852,-19.531,-756.348,-136.719,0,0
1586465051,164.062,311.035,-714.844,81.055,0,0
1586465051,-103.516,84.473,-855.957,109.863,0,0
1586465051,-163.086,-271.973,-898.926,-115.234,0,0
1586465051,123.047,-152.832,-795.41,-206.055,0,0
1586465051,252.441,425.293,-667.969,12.695,0,0
1586465051,-0.488,517.09,-726.562,127.93,0,0
1586465051,-142.09,-87.891,-898.438,-55.176,0,0
1586465051,45.898,-700.195,-912.598,-190.918,0,0
1586465051,206.055,-236.328,-793.945,-34.668,0,0
1586465051,50.293,73.242,-833.984,124.512,0,0
1586465051,-133.301,-482.91,-910.645,13.184,0,0
1586465051,1.465,-836.426,-922.363,-159.668,0,0
1586465051,205.078,16.602,-728.516,-124.023,0,0
1586465051,87.891,673.828,-668.457,85.449,0,0
1586465051,-174.316,57.129,-815.43,62.012,0,0
1586465051,-135.254,-128.418,-811.523,-162.109,0,0
1586465051,153.32,422.363,-720.703,-176.27,0,0
1586465051,180.176,671.875,-683.105,77.637,0,0
1586465051,-102.539,225.098,-777.832,115.723,0,0
1586465051,-144.531,-47.852,-805.176,-91.309,0,0
1586465051,87.402,306.641,-733.398,-153.809,0,0
1586465051,174.805,314.941,-779.785,15.625,0,0
1586465051,-11.23,-497.559,-879.883,154.785,0,0
1586465051,-206.055,-774.902,-891.602,-20.996,0,0
1586465051,-84.473,49.805,-728.516,-222.168,0,0
1586465051,128.418,448.242,-676.27,-41.992,0,0
1586465051,0.488,144.043,-768.066,153.809,0,0
1586465051,-208.008,-92.285,-809.082,7.324,0,0
1586465051,-114.258,171.875,-739.258,-198.242,0,0
1586465051,126.953,333.984,-741.699,-119.629,0,0
1586465051,78.125,222.168,-792.48,108.887,0,0
1586465051,-177.734,42.969,-800.781,86.914,0,0
1586465051,-154.785,-108.398,-840.332,-138.184,0,0
1586465051,97.656,-158.203,-827.637,-174.805,0,0
1586465051,135.254,18.066,-752.441,75.684,0,0
1586465051,-107.422,-102.539,-803.711,140.625,0,0
1586465051,-207.031,-277.832,-854.004,-70.801,0,0
1586465051,7.812,-411.133,-873.535,-153.809,0,0
1586465051,136.719,-463.379,-819.336,34.668,0,0
1586465051,-85.449,130.859,-692.871,146.973,0,0
1586465051,-268.066,6.836,-804.199,4.395,0,0
1586465051,-66.895,-233.887,-832.52,-145.508,0,0
1586465051,136.719,25.391,-723.145,-40.527,0,0
1586465051,-14.16,206.055,-708.008,150.879,0,0
1586465051,-236.816,-133.789,-834.473,66.406,0,0
1586465051,-146.484,-603.027,-872.07,-152.832,0,0
1586465051,102.051,-269.043,-754.395,-111.816,0,0
1586465051,91.309,393.555,-659.18,118.652,0,0
1586465051,-162.109,50.293,-812.012,111.816,0,0
1586465051,-200.684,-682.129,-883.301,-119.141,0,0
1586465051,57.129,-212.891,-708.984,-180.664,0,0
1586465051,143.555,546.875,-643.066,66.895,0,0
1586465051,-94.238,42.969,-825.195,157.715,0,0
1586465051,-210.938,-651.367,-878.418,-47.852,0,0
1586465051,11.719,-187.5,-749.512,-173.828,0,0
1586465051,170.898,408.203,-704.102,5.859,0,0
1586465051,-29.297,80.566,-783.203,180.664,0,0
1586465051,-231.934,-615.723,-919.922,34.18,0,0
1586465051,-89.355,-448.73,-852.539,-177.246,0,0
1586465051,130.859,161.133,-746.094,-63.965,0,0
1586465051,20.508,-148.926,-834.473,159.668,0,0
1586465051,-246.582,-826.172,-919.434,89.355,0,0
1586465051,-207.52,-322.754,-772.461,-125.488,0,0
1586465051,58.105,311.035,-682.617,-104.004,0,0
1586465051,44.922,229.98,-708.008,114.258,0,0
1586465051,-213.867,-215.332,-814.453,115.723,0,0
1586465051,-240.723,-367.676,-857.422,-93.75,0,0
1586465051,-1.465,-191.895,-816.895,-178.711,0,0
1586465051,88.379,25.391,-754.883,27.344,0,0
1586465051,-175.293,-186.523,-794.922,136.23,0,0
1586465051,-299.805,-424.316,-839.844,-63.477,0,0
1586465051,-73.73,73.242,-733.887,-208.496,0,0
1586465051,103.516,-322.754,-823.242,-13.184,0,0
1586465051,-64.941,-711.914,-864.746,167.48,0,0
1586465051,-290.527,-126.465,-783.691,10.254,0,0
1586465052,-157.227,-130.371,-836.426,-185.547,0,0
1586465052,62.5,73.242,-777.344,-112.305,0,0
1586465052,-39.062,388.184,-690.43,115.723,0,0
1586465052,-280.762,190.918,-744.629,91.797,0,0
1586465052,-227.051,-264.16,-875,-143.066,0,0
1586465052,15.137,-146.484,-835.938,-175.781,0,0
1586465052,38.086,71.289,-769.531,94.238,0,0
1586465052,-235.84,-323.73,-850.098,125,0,0
1586465052,-313.965,-773.438,-918.457,-113.77,0,0
1586465052,-73.242,-716.797,-849.609,-187.012,0,0
1586465052,10.254,261.719,-611.328,2.441,0,0
1586465052,-208.984,392.09,-694.824,138.672,0,0
1586465052,-314.941,-406.25,-865.723,3.418,0,0
1586465052,-137.207,-337.891,-772.461,-170.898,0,0
1586465052,24.414,294.434,-657.227,-52.734,0,0
1586465052,-113.281,144.043,-764.16,162.598,0,0
1586465052,-349.609,-560.547,-896.973,56.152,0,0
1586465052,-245.117,-638.672,-856.934,-178.223,0,0
1586465052,9.766,-266.602,-812.5,-132.812,0,0
1586465052,-35.156,-145.508,-794.922,118.164,0,0
1586465052,-250.488,-666.016,-870.605,129.395,0,0
1586465052,-238.77,-700.684,-870.117,-130.371,0,0
1586465052,-49.316,-152.832,-827.637,-221.68,0,0
1586465052,-17.578,-169.922,-824.219,24.414,0,0
1586465052,-248.047,-462.891,-852.539,133.301,0,0
1586465052,-311.035,-592.773,-886.23,-57.129,0,0
1586465052,-67.871,-261.719,-808.105,-222.168,0,0
1586465052,53.711,-168.457,-837.891,-22.949,0,0
1586465052,-168.945,-345.215,-879.395,143.555,0,0
1586465052,-342.773,-373.047,-845.703,-20.996,0,0
1586465052,-153.32,-528.809,-880.859,-194.824,0,0
1586465052,52.246,-575.195,-894.043,-60.547,0,0
1586465052,-54.688,-651.367,-889.16,167.969,0,0
1586465052,-279.297,-720.703,-895.508,62.012,0,0
1586465052,-228.516,-460.938,-855.957,-197.266,0,0
1586465052,38.574,-488.77,-856.445,-146.484,0,0
1586465052,25.391,-721.191,-896.973,134.766,0,0
1586465052,-233.398,-520.996,-826.172,116.699,0,0
1586465052,-260.742,-593.262,-885.254,-122.559,0,0
1586465052,-15.625,-447.754,-843.75,-193.848,0,0
1586465052,79.59,47.363,-700.684,35.645,0,0
1586465052,-150.879,31.738,-785.645,134.277,0,0
1586465052,-260.742,-532.715,-905.762,-61.035,0,0
1586465052,-49.805,-946.777,-929.199,-198.73,0,0
1586465052,80.078,-598.145,-824.219,-8.301,0,0
1586465052,-113.77,109.375,-723.145,137.207,0,0
1586465052,-296.387,-319.336,-857.91,-20.996,0,0
1586465052,-151.855,-491.211,-835.938,-213.379,0,0
1586465052,63.477,89.844,-691.895,-106.445,0,0
1586465052,-52.734,247.559,-690.918,115.234,0,0
1586465052,-269.531,-331.055,-866.699,41.016,0,0
1586465052,-173.34,-740.723,-921.387,-189.453,0,0
1586465052,81.055,-370.117,-792.48,-169.434,0,0
1586465052,52.734,-20.508,-758.789,79.102,0,0
1586465052,-213.379,-549.805,-912.598,101.562,0,0
1586465052,-245.117,-918.945,-923.828,-122.07,0,0
1586465052,4.883,-483.887,-814.941,-215.82,0,0
1586465052,113.281,-61.523,-786.133,22.949,0,0
1586465052,-122.07,-277.832,-821.289,168.457,0,0
1586465052,-238.281,-682.617,-881.836,-3.906,0,0
1586465052,-31.25,-140.137,-777.344,-222.656,0,0
1586465052,138.672,231.934,-748.047,-58.105,0,0
1586465052,-14.16,-147.949,-827.148,149.414,0,0
1586465052,-227.051,-393.555,-851.074,23.926,0,0
1586465052,-110.352,-184.082,-809.082,-175.293,0,0
1586465052,120.117,110.352,-764.16,-152.832,0,0
1586465052,44.434,-169.922,-816.406,93.75,0,0
1586465052,-189.453,-673.828,-865.234,74.707,0,0
1586465052,-134.277,-451.172,-837.891,-151.855,0,0
1586465052,73.73,30.762,-789.551,-160.645,0,0
1586465052,92.773,-43.945,-791.504,99.609,0,0
1586465052,-163.574,-244.629,-816.895,142.09,0,0
1586465052,-230.957,-323.73,-861.328,-97.168,0,0
1586465052,32.715,-227.051,-849.121,-208.496,0,0
1586465052,143.066,-285.645,-821.777,24.902,0,0
1586465052,-72.754,-235.352,-792.969,177.246,0,0
1586465052,-208.984,-293.945,-854.004,-25.879,0,0
1586465052,-15.137,-443.848,-882.324,-212.891,0,0
1586465052,166.992,-340.332,-854.98,-78.125,0,0
1586465052,57.617,-229.98,-818.848,166.504,0,0
1586465052,-161.133,-477.051,-858.887,47.852,0,0
1586465052,-101.562,-901.367,-938.965,-177.734,0,0
1586465052,152.832,-721.191,-858.398,-85.449,0,0
1586465052,100.586,91.797,-700.195,119.629,0,0
1586465052,-157.227,136.23,-799.316,103.516,0,0
1586465052,-141.602,-289.062,-834.473,-127.93,0,0
1586465052,98.145,-45.41,-737.305,-186.035,0,0
1586465052,134.277,307.617,-724.609,48.828,0,0
1586465052,-86.914,-99.121,-850.586,117.676,0,0
1586465052,-144.043,-434.082,-887.695,-100.586,0,0
1586465052,62.988,-279.297,-838.867,-219.727,0,0
1586465052,169.434,-13.672,-766.602,-23.926,0,0
1586465052,-26.367,60.547,-772.949,152.832,0,0
1586465052,-170.898,-639.16,-889.16,0.488,0,0
1586465052,-13.672,-586.914,-831.055,-211.914,0,0
1586465052,159.668,399.902,-666.016,-79.102,0,0
1586465052,66.406,300.781,-733.398,157.715,0,0
1586465052,-137.207,-363.281,-850.098,77.637,0,0
1586465052,-53.223,-192.383,-772.949,-155.762,0,0
1586465052,159.18,345.215,-674.805,-154.785,0,0
1586465052,120.117,331.055,-745.117,108.887,0,0
1586465052,-101.074,-258.301,-916.016,121.094,0,0
1586465052,-123.047,-660.645,-915.039,-119.141,0,0
1586465052,91.797,-471.68,-855.957,-181.641,0,0
1586465052,165.527,-391.113,-872.559,59.57,0,0
1586465052,-43.945,-536.621,-890.137,149.414,0,0
1586465052,-120.605,-229.98,-814.453,-73.73,0,0
1586465052,97.168,258.789,-738.77,-205.566,0,0
1586465052,225.098,16.113,-808.105,-17.09,0,0
1586465052,39.062,-530.273,-900.391,147.949,0,0
1586465052,-160.156,-135.742,-814.941,-20.508,0,0
1586465052,-16.602,110.352,-824.219,-232.422,0,0
1586465052,214.844,31.25,-774.414,-116.699,0,0
1586465052,123.535,164.062,-733.398,113.281,0,0
1586465052,-102.539,-101.074,-875,41.504,0,0
1586465052,-40.527,-440.43,-900.879,-178.711,0,0
1586465052,182.617,-382.812,-801.758,-175.293,0,0
1586465052,155.762,-7.812,-733.887,67.871,0,0
1586465052,-72.754,249.512,-774.902,102.051,0,0
1586465052,-123.047,47.363,-839.355,-139.648,0,0
1586465052,98.145,-357.91,-809.57,-219.238,0,0
1586465052,181.152,-83.008,-714.355,1.465,0,0
1586465052,-34.668,407.715,-725.586,128.418,0,0
1586465052,-135.742,-40.527,-866.211,-28.32,0,0
1586465052,40.039,-154.297,-864.258,-228.027,0,0
1586465052,184.082,324.219,-746.582,-104.004,0,0
1586465052,41.992,89.844,-834.961,150.391,0,0
1586465052,-128.418,-495.117,-883.789,43.945,0,0
1586465052,-5.371,-520.508,-875,-185.547,0,0
1586465052,185.059,-61.523,-784.18,-128.418,0,0
1586465052,79.59,458.008,-686.035,103.027,0,0
1586465052,-105.469,-187.988,-862.305,72.754,0,0
1586465052,-53.223,-726.562,-906.25,-171.875,0,0
1586465052,129.883,218.262,-695.312,-237.305,0,0
1586465052,168.945,680.176,-664.062,11.719,0,0
1586465052,-24.414,215.82,-803.711,105.957,0,0
1586465052,-87.402,29.297,-786.133,-118.652,0,0
1586465052,133.789,340.332,-745.605,-236.328,0,0
1586465052,239.746,380.371,-781.738,-10.254,0,0
1586465052,37.598,-394.531,-867.676,144.043,0,0
1586465052,-96.68,-628.906,-885.742,-37.598,0,0
1586465052,76.172,166.992,-776.855,-203.613,0,0
1586465052,228.516,255.859,-769.043,-46.875,0,0
1586465052,104.98,181.641,-741.211,166.992,0,0
1586465052,-61.523,214.355,-765.625,66.406,0,0
1586465052,18.555,341.797,-735.84,-175.293,0,0
1586465052,197.266,353.027,-762.695,-135.742,0,0
1586465052,129.395,323.242,-754.883,122.559,0,0
1586465052,-91.309,315.43,-711.426,108.887,0,0
1586465052,-81.543,217.285,-773.438,-123.535,0,0
1586465052,145.508,-78.125,-877.441,-137.695,0,0
1586465052,197.266,-276.855,-842.285,83.984,0,0
1586465052,-36.621,-166.504,-787.598,154.785,0,0
1586465052,-114.746,-137.207,-844.238,-39.062,0,0
1586465052,87.891,-124.512,-789.551,-221.68,0,0
1586465052,169.434,161.133,-681.152,-38.574,0,0
1586465052,3.418,337.891,-749.023,147.949,0,0
1586465052,-135.254,-286.621,-911.133,-1.953,0,0
1586465052,-19.043,-338.379,-829.59,-216.309,0,0
1586465052,153.809,160.645,-700.195,-93.262,0,0
1586465052,61.523,344.727,-703.613,135.254,0,0
1586465052,-135.254,78.125,-821.289,57.129,0,0
1586465052,-64.941,-340.82,-849.609,-143.555,0,0
1586465052,133.301,-83.008,-712.402,-146.484,0,0
1586465052,102.051,546.875,-626.465,87.891,0,0
1586465052,-98.633,282.227,-751.953,137.207,0,0
1586465052,-102.539,-209.961,-824.219,-107.91,0,0
1586465052,82.031,156.738,-688.477,-202.637,0,0
1586465052,133.789,680.664,-594.238,42.969,0,0
1586465052,-59.57,320.801,-739.746,176.27,0,0
1586465052,-134.277,-358.398,-854.492,-6.836,0,0
1586465052,53.223,-219.727,-791.504,-199.707,0,0
1586465052,166.504,299.805,-700.684,-56.641,0,0
1586465052,1.953,73.73,-790.527,145.02,0,0
1586465052,-131.836,-740.234,-944.336,23.926,0,0
1586465052,-19.531,-395.02,-791.504,-209.473,0,0
1586465052,128.418,222.168,-722.656,-151.855,0,0
1586465052,62.5,-134.277,-836.426,99.121,0,0
1586465052,-133.789,-538.086,-885.254,91.797,0,0
1586465052,-131.348,20.996,-749.023,-157.715,0,0
1586465052,61.523,615.234,-677.734,-176.27,0,0
1586465052,86.914,219.238,-736.328,103.027,0,0
1586465052,-115.723,-167.969,-796.875,159.668,0,0
1586465052,-138.184,185.547,-756.836,-103.027,0,0
1586465052,47.852,454.102,-706.543,-212.891,0,0
1586465052,98.145,284.18,-773.438,40.039,0,0
1586465052,-108.398,-58.594,-804.199,185.059,0,0
1586465052,-205.078,-145.996,-813.965,3.418,0,0
1586465052,-12.207,-18.555,-812.012,-170.898,0,0
1586465052,135.742,-221.68,-805.664,-18.555,0,0
1586465052,-26.855,-358.887,-859.863,142.578,0,0
1586465052,-217.285,128.418,-791.504,15.137,0,0
1586465052,-132.812,40.527,-815.918,-187.988,0,0
1586465052,50.781,234.863,-722.168,-142.09,0,0
1586465052,23.926,628.906,-619.629,86.426,0,0
1586465052,-178.223,302.734,-786.621,32.227,0,0
1586465052,-164.062,-266.602,-897.461,-192.871,0,0
1586465052,42.48,-205.566,-858.887,-216.309,0,0
1586465052,70.801,-18.066,-805.664,47.852,0,0
1586465052,-125,-97.656,-810.059,145.996,0,0
1586465052,-191.895,-449.219,-907.715,-74.219,0,0
1586465052,-11.719,-868.652,-905.273,-210.449,0,0
1586465052,68.848,-18.066,-649.414,-21.484,0,0
1586465052,-109.375,596.191,-641.113,138.672,0,0
1586465052,-235.84,-36.621,-807.617,-31.25,0,0
1586465052,-91.309,-112.793,-777.344,-217.773,0,0
1586465052,70.312,407.227,-675.293,-70.801,0,0
1586465052,-51.758,355.469,-717.773,145.02,0,0
1586465052,-235.84,-161.621,-836.914,55.664,0,0
1586465052,-160.645,-214.844,-809.082,-154.785,0,0
1586465052,47.363,-58.594,-797.852,-131.348,0,0
1586465052,4.883,-42.48,-780.273,111.816,0,0
1586465052,-202.637,-595.215,-895.02,132.812,0,0
1586465052,-199.219,-739.746,-887.207,-112.305,0,0
1586465052,-7.324,193.359,-658.691,-178.711,0,0
1586465052,50.781,389.648,-679.688,70.312,0,0
1586465052,-142.578,-255.371,-838.379,163.086,0,0
1586465052,-252.441,-387.207,-824.219,-52.734,0,0
1586465052,-84.473,200.684,-700.195,-234.863,0,0
1586465052,55.176,246.094,-755.859,-16.602,0,0
1586465052,-94.238,-44.434,-850.098,173.828,0,0
1586465052,-254.395,-174.316,-842.773,13.184,0,0
1586465052,-94.727,-301.758,-851.074,-189.941,0,0
1586465052,84.961,-301.27,-834.961,-86.426,0,0
1586465052,-50.293,-335.449,-816.406,135.742,0,0
1586465052,-239.258,-337.891,-826.66,42.48,0,0
1586465052,-180.664,-47.852,-783.203,-186.523,0,0
1586465052,44.434,-218.75,-816.895,-155.273,0,0
1586465052,29.297,-608.398,-856.445,95.703,0,0
1586465052,-208.984,-131.348,-747.559,107.422,0,0
1586465052,-213.379,-28.32,-826.66,-112.793,0,0
1586465052,3.906,-289.551,-850.586,-195.801,0,0
1586465052,40.527,-41.504,-726.562,20.02,0,0
1586465052,-145.508,162.109,-750.977,143.066,0,0
1586465052,-236.328,-237.305,-869.141,-58.105,0,0
1586465052,-76.172,-457.52,-848.145,-246.582,0,0
1586465052,52.246,-67.383,-756.836,-59.082,0,0
1586465052,-85.938,241.211,-722.656,144.043,0,0
1586465052,-241.699,-88.379,-845.215,-13.184,0,0
1586465052,-126.465,-679.199,-866.699,-220.703,0,0
1586465052,54.688,-281.738,-727.539,-123.047,0,0
1586465052,-56.641,407.227,-685.059,116.699,0,0
1586465052,-254.395,-56.152,-837.402,71.289,0,0
1586465052,-197.266,-331.543,-867.188,-183.105,0,0
1586465052,-1.465,142.578,-722.656,-201.66,0,0
1586465052,11.23,335.938,-724.121,64.453,0,0
1586465052,-173.34,-364.258,-894.043,117.676,0,0
1586465052,-212.891,-854.004,-925.293,-111.328,0,0
1586465052,-51.27,-412.598,-827.148,-216.309,0,0
1586465052,15.625,-4.883,-807.617,0,0,0
1586465052,-152.832,-249.023,-825.684,153.809,0,0
1586465052,-257.324,-458.984,-855.957,-53.223,0,0
1586465052,-99.121,13.672,-777.832,-277.832,0,0
1586465052,58.105,241.211,-757.812,-95.215,0,0
1586465052,-60.547,-74.219,-816.406,128.418,0,0
1586465052,-236.816,-382.812,-854.98,-6.348,0,0
1586465053,-137.695,-153.809,-814.941,-227.539,0,0
1586465053,62.988,179.199,-775.391,-131.348,0,0
1586465053,-2.441,-257.812,-866.699,119.629,0,0
1586465053,-208.984,-640.137,-881.348,61.035,0,0
1586465053,-193.359,-248.047,-830.566,-188.965,0,0
1586465053,4.883,-62.5,-848.633,-204.59,0,0
1586465053,27.344,-549.805,-833.984,89.844,0,0
1586465053,-213.379,-563.965,-827.148,150.391,0,0
1586465053,-272.949,7.324,-789.062,-130.371,0,0
1586465053,-66.406,26.855,-801.27,-247.07,0,0
1586465053,38.574,60.547,-812.988,-7.812,0,0
1586465053,-141.113,143.066,-778.32,175.293,0,0
1586465053,-248.535,-20.02,-841.309,6.836,0,0
1586465053,-70.312,-223.633,-890.625,-185.547,0,0
1586465053,72.266,-374.512,-883.301,-36.621,0,0
1586465053,-42.48,-208.496,-833.008,134.766,0,0
1586465053,-215.82,-339.355,-870.117,1.465,0,0
1586465053,-140.625,-759.277,-909.668,-207.031,0,0
1586465053,47.363,-419.922,-843.75,-150.391,0,0
1586465053,24.414,160.156,-774.414,104.492,0,0
1586465053,-159.18,-34.668,-841.309,109.863,0,0
1586465053,-129.883,-690.918,-932.129,-116.211,0,0
1586465053,65.43,-758.301,-883.301,-177.246,0,0
1586465053,56.152,129.883,-719.238,22.949,0,0
1586465053,-151.855,152.832,-816.406,101.562,0,0
1586465053,-209.961,-392.09,-915.527,-100.098,0,0
1586465053,-40.527,-510.742,-876.465,-251.953,0,0
1586465053,71.289,-114.746,-793.457,-60.547,0,0
1586465053,-76.66,116.699,-797.852,111.816,0,0
1586465053,-176.758,-615.234,-896.484,-27.832,0,0
1586465053,-68.359,-585.449,-863.281,-221.68,0,0
1586465053,52.734,302.246,-733.887,-151.855,0,0
1586465053,-25.879,216.797,-786.621,90.332,0,0
1586465053,-186.035,-268.066,-886.23,39.551,0,0
1586465053,-105.957,-183.594,-835.449,-206.543,0,0
1586465053,78.125,-36.621,-839.355,-182.617,0,0
1586465053,49.316,-187.988,-886.23,87.891,0,0
1586465053,-134.766,-311.523,-919.434,124.023,0,0
1586465053,-130.371,-425.781,-900.391,-118.652,0,0
1586465053,73.73,-281.738,-838.867,-208.008,0,0
1586465053,109.863,-296.387,-867.188,55.664,0,0
1586465053,-91.309,-633.789,-897.949,156.25,0,0
1586465053,-166.504,-269.531,-814.941,-100.586,0,0
1586465053,-13.672,161.621,-787.109,-264.648,0,0
1586465053,118.164,101.562,-763.672,-62.988,0,0
1586465053,-2.93,-66.895,-788.086,132.812,0,0
1586465053,-169.434,-43.457,-810.547,-17.09,0,0
1586465053,-37.109,-123.047,-865.234,-216.797,0,0
1586465053,164.062,-144.043,-822.754,-87.402,0,0
1586465053,65.918,-64.941,-808.105,147.949,0,0
1586465053,-131.836,-302.734,-895.996,70.312,0,0
1586465053,-86.426,-320.312,-850.098,-158.691,0,0
1586465053,112.793,-630.371,-895.996,-140.137,0,0
1586465053,94.238,-635.254,-856.445,97.168,0,0
1586465053,-126.953,55.664,-779.785,116.699,0,0
1586465053,-151.367,-105.957,-855.957,-89.844,0,0
1586465053,56.641,-127.441,-807.129,-188.965,0,0
1586465053,161.621,373.535,-673.34,15.625,0,0
1586465053,-22.949,455.078,-696.289,162.598,0,0
1586465053,-168.457,-153.32,-878.418,-22.949,0,0
1586465053,-32.715,-312.5,-860.352,-225.098,0,0
1586465053,124.512,184.57,-731.445,-42.969,0,0
1586465053,-11.23,0,-814.453,152.832,0,0
1586465053,-167.969,-600.586,-927.246,0.488,0,0
1586465053,-40.527,-905.273,-936.035,-168.945,0,0
1586465053,121.094,-382.812,-798.34,-102.539,0,0
1586465053,41.016,224.121,-732.91,113.77,0,0
1586465053,-145.996,-72.266,-782.227,101.562,0,0
1586465053,-111.328,-114.258,-755.371,-132.812,0,0
1586465053,84.961,317.383,-711.914,-175.781,0,0
1586465053,97.168,426.758,-708.008,79.102,0,0
1586465053,-78.613,88.379,-775.391,149.414,0,0
1586465053,-125.488,-105.469,-769.043,-87.402,0,0
1586465053,38.086,218.262,-728.516,-210.938,0,0
1586465053,129.395,191.406,-784.668,19.043,0,0
1586465053,-27.344,-438.477,-818.848,169.434,0,0
1586465053,-162.109,-509.766,-780.273,-22.949,0,0
1586465053,-34.18,90.82,-712.402,-215.332,0,0
1586465053,139.16,446.289,-685.059,-52.734,0,0
1586465053,33.203,-246.094,-766.602,183.105,0,0
1586465053,-139.648,-742.188,-820.312,78.125,0,0
1586465053,-58.594,-65.43,-727.051,-173.828,0,0
1586465053,140.625,212.402,-700.684,-122.559,0,0
1586465053,78.613,125.488,-754.883,115.234,0,0
1586465053,-132.812,75.195,-747.559,108.887,0,0
1586465053,-86.426,-12.207,-774.902,-132.324,0,0
1586465053,123.047,-216.309,-854.98,-196.289,0,0
1586465053,151.367,-327.148,-796.875,50.293,0,0
1586465053,-55.176,-130.859,-747.07,114.746,0,0
1586465053,-125.977,-203.613,-843.262,-95.215,0,0
1586465053,43.945,-192.871,-758.789,-221.68,0,0
1586465053,140.137,169.434,-643.555,-21.973,0,0
1586465053,-21.973,352.539,-684.082,125.977,0,0
1586465053,-149.902,27.832,-802.246,-28.809,0,0
1586465053,4.395,-180.664,-805.176,-203.613,0,0
1586465053,175.293,-58.594,-723.145,-99.121,0,0
1586465053,25.879,247.559,-668.945,116.211,0,0
1586465053,-170.41,155.762,-765.137,28.32,0,0
1586465053,-63.965,-384.766,-859.863,-190.43,0,0
1586465053,133.301,-285.156,-745.117,-136.719,0,0
1586465053,106.445,339.844,-642.578,101.074,0,0
1586465053,-87.402,153.809,-774.902,102.539,0,0
1586465053,-95.703,-539.062,-829.59,-112.305,0,0
1586465053,91.309,-286.133,-723.145,-183.105,0,0
1586465053,163.086,332.031,-687.012,30.273,0,0
1586465053,-7.812,93.75,-771.973,141.602,0,0
1586465053,-124.023,-264.648,-862.305,-72.754,0,0
1586465053,42.969,52.734,-736.328,-243.164,0,0
1586465053,167.48,460.938,-645.508,-38.574,0,0
1586465053,0.977,110.352,-768.555,133.789,0,0
1586465053,-140.625,-549.805,-926.27,-15.137,0,0
1586465053,-15.137,-556.641,-863.77,-208.984,0,0
1586465053,146.973,-77.148,-752.441,-133.301,0,0
1586465053,73.73,-173.828,-834.961,120.605,0,0
1586465053,-116.699,-714.355,-909.18,71.777,0,0
1586465053,-109.863,-135.742,-733.398,-205.566,0,0
1586465053,84.473,441.895,-670.898,-190.43,0,0
1586465053,91.797,219.238,-721.68,77.148,0,0
1586465053,-120.117,18.066,-769.043,96.191,0,0
1586465053,-141.113,27.344,-784.18,-130.859,0,0
1586465053,48.34,178.711,-738.77,-200.195,0,0
1586465053,88.379,160.156,-785.645,20.996,0,0
1586465053,-74.707,-201.172,-830.078,119.141,0,0
1586465053,-171.875,-209.473,-799.316,-54.688,0,0
1586465053,-12.695,68.848,-784.18,-239.746,0,0
1586465053,124.023,-80.566,-750.488,-88.867,0,0
1586465053,-22.461,30.273,-664.551,116.699,0,0
1586465053,-173.34,274.902,-698.242,-22.949,0,0
1586465053,-39.551,172.363,-767.578,-232.91,0,0
1586465053,141.602,-373.535,-787.109,-133.789,0,0
1586465053,45.41,-173.34,-675.293,92.285,0,0
1586465053,-162.109,321.289,-725.098,52.246,0,0
1586465053,-140.625,-92.773,-853.027,-169.434,0,0
1586465053,35.156,-108.398,-859.375,-190.918,0,0
1586465053,32.715,37.109,-794.922,60.059,0,0
1586465053,-164.062,-28.32,-783.691,85.938,0,0
1586465053,-194.336,-434.082,-902.832,-113.281,0,0
1586465053,0.488,-613.77,-869.141,-209.473,0,0
1586465053,31.25,267.578,-661.621,-72.754,0,0
1586465053,-170.898,419.922,-740.234,21.973,0,0
1586465053,-297.852,-233.398,-850.098,-159.668,0,0
1586465053,-207.52,-90.332,-746.094,-370.605,0,0
1586465053,-85.449,567.871,-653.809,-267.578,0,0
1586465053,-211.426,474.609,-750,-83.008,0,0
1586465053,-386.719,-32.715,-834.961,-173.828,0,0
1586465053,-309.082,-48.34,-813.477,-420.898,0,0
1586465053,-155.273,88.867,-820.801,-409.668,0,0
1586465053,-217.285,101.562,-785.645,-153.809,0,0
1586465053,-396.973,-509.277,-889.16,-142.09,0,0
1586465053,-370.117,-688.965,-880.859,-375,0,0
1586465053,-154.297,219.727,-701.66,-404.785,0,0
1586465053,-81.543,402.344,-717.773,-144.043,0,0
1586465053,-251.465,7.812,-809.57,-54.688,0,0
1586465053,-285.156,8.301,-789.062,-254.395,0,0
1586465053,-74.707,204.102,-772.949,-347.168,0,0
1586465053,31.738,25.391,-841.797,-112.793,0,0
1586465053,-124.512,-142.578,-824.707,52.734,0,0
1586465053,-249.512,-27.832,-798.828,-98.633,0,0
1586465053,-80.566,-129.395,-845.215,-247.559,0,0
1586465053,100.098,-275.879,-852.051,-68.848,0,0
1586465053,-28.809,-422.852,-851.074,148.438,0,0
1586465053,-211.914,-224.121,-779.785,30.762,0,0
1586465053,-129.395,172.852,-726.074,-205.078,0,0
1586465053,83.008,-56.152,-804.199,-137.207,0,0
1586465053,64.453,-344.727,-851.562,131.836,0,0
1586465053,-145.508,-2.93,-743.164,131.348,0,0
1586465053,-125,68.848,-780.273,-73.73,0,0
1586465053,108.887,-12.695,-778.809,-149.902,0,0
1586465053,136.719,267.09,-654.785,50.293,0,0
1586465053,-63.965,228.027,-746.582,162.109,0,0
1586465053,-134.277,-255.859,-869.141,-21.484,0,0
1586465053,39.551,-785.645,-909.18,-127.93,0,0
1586465053,147.949,-479.492,-801.758,70.312,0,0
1586465053,-8.789,314.941,-656.738,206.543,0,0
1586465053,-118.164,-72.266,-814.453,45.41,0,0
1586465053,-6.348,-277.832,-814.941,-145.996,0,0
1586465053,133.301,277.344,-655.762,-27.344,0,0
1586465053,53.223,476.562,-642.09,191.895,0,0
1586465053,-111.328,-19.531,-805.664,147.949,0,0
1586465053,-61.035,-346.191,-858.398,-69.336,0,0
1586465053,112.305,165.039,-665.039,-94.727,0,0
1586465053,100.586,412.598,-682.129,164.551,0,0
1586465053,-89.355,-306.641,-882.812,195.312,0,0
1586465053,-104.492,-810.547,-897.949,-34.668,0,0
1586465053,80.078,-323.242,-776.367,-106.934,0,0
1586465053,125.488,17.578,-756.348,113.77,0,0
1586465053,-79.59,-289.551,-796.875,207.52,0,0
1586465053,-178.711,-356.934,-801.758,-9.277,0,0
1586465053,9.766,69.336,-739.258,-144.043,0,0
1586465053,156.738,377.93,-661.621,48.34,0,0
1586465053,-15.625,93.75,-734.375,194.824,0,0
1586465053,-179.688,-297.363,-838.379,37.109,0,0
1586465053,-61.523,-96.191,-781.738,-163.086,0,0
1586465053,92.773,182.617,-716.797,-68.359,0,0
1586465053,19.531,-189.453,-822.266,180.664,0,0
1586465053,-155.273,-526.855,-873.535,135.254,0,0
1586465053,-109.375,-182.617,-773.926,-116.699,0,0
1586465053,92.773,158.203,-739.258,-141.113,0,0
1586465053,113.77,-417.969,-834.473,122.559,0,0
1586465053,-75.195,-802.246,-902.832,169.922,0,0
1586465053,-114.258,-382.324,-826.66,-72.754,0,0
1586465053,71.777,-45.41,-752.441,-171.387,0,0
1586465053,156.25,12.207,-743.164,55.176,0,0
1586465053,-38.086,-34.18,-768.066,184.082,0,0
1586465053,-167.969,-29.297,-773.926,-1.465,0,0
1586465053,-4.883,-124.023,-833.008,-177.246,0,0
1586465053,158.203,-297.363,-889.16,23.438,0,0
1586465053,28.32,-106.934,-761.23,211.426,0,0
1586465053,-146.973,-141.113,-804.199,51.27,0,0
1586465053,-26.367,-633.789,-920.41,-127.93,0,0
1586465053,149.902,-585.449,-822.754,-71.289,0,0
1586465053,66.406,130.371,-660.645,124.512,0,0
1586465053,-153.32,77.637,-790.527,98.633,0,0
1586465053,-140.137,-375.977,-818.848,-125.488,0,0
1586465053,68.848,-277.832,-782.715,-166.992,0,0
1586465053,89.355,79.59,-759.766,56.641,0,0
1586465053,-99.609,-48.828,-804.199,131.836,0,0
1586465053,-136.23,-498.535,-887.695,-58.105,0,0
1586465053,44.434,-562.5,-855.957,-179.688,0,0
1586465053,132.812,-230.469,-787.598,1.953,0,0
1586465053,-25.391,-27.344,-782.715,139.648,0,0
1586465053,-124.512,-622.07,-887.695,-10.254,0,0
1586465053,-15.625,-588.379,-850.586,-179.199,0,0
1586465053,148.926,368.652,-689.453,-66.895,0,0
1586465053,37.598,279.297,-756.348,132.812,0,0
1586465053,-194.824,-263.672,-848.633,40.527,0,0
1586465053,-108.398,-18.066,-737.793,-188.477,0,0
1586465053,93.75,458.984,-657.715,-120.117,0,0
1586465053,56.152,338.867,-750,114.746,0,0
1586465053,-131.836,-158.691,-895.02,86.914,0,0
1586465053,-115.723,-304.199,-846.191,-128.906,0,0
1586465053,63.477,-124.512,-782.227,-184.57,0,0
1586465053,96.68,-134.277,-817.383,46.387,0,0
1586465053,-96.68,-338.379,-874.512,135.742,0,0
1586465053,-163.086,-177.734,-818.359,-69.336,0,0
1586465053,-0.977,183.594,-710.938,-207.031,0,0
1586465053,116.699,-24.414,-783.203,-6.348,0,0
1586465053,-14.16,-373.047,-862.793,149.902,0,0
1586465053,-177.734,-69.824,-781.738,-38.086,0,0
1586465053,-65.918,54.688,-805.664,-229.492,0,0
1586465053,125,-183.105,-812.012,-67.871,0,0
1586465053,69.824,-239.258,-796.875,171.387,0,0
1586465053,-134.277,-125,-811.035,63.965,0,0
1586465053,-117.676,-223.145,-826.66,-165.039,0,0
1586465053,89.844,-536.133,-848.633,-124.512,0,0
1586465053,94.727,-469.727,-802.734,81.543,0,0
1586465053,-127.441,243.164,-698.242,76.172,0,0
1586465053,-139.648,5.859,-804.199,-122.07,0,0
1586465053,78.613,-188.965,-806.641,-185.059,0,0
1586465053,129.883,295.41,-676.27,30.273,0,0
1586465053,-59.082,403.32,-687.988,122.559,0,0
1586465053,-153.32,-135.254,-861.328,-55.664,0,0
1586465053,-1.953,-222.168,-828.125,-206.055,0,0
1586465053,124.023,319.336,-676.27,-16.113,0,0
1586465053,-15.137,185.059,-765.137,171.875,0,0
1586465053,-168.457,-416.504,-890.137,3.418,0,0
1586465054,-50.781,-898.438,-916.992,-171.875,0,0
1586465054,114.258,-250.488,-730.469,-97.656,0,0
1586465054,33.203,418.457,-681.152,118.164,0,0
1586465054,-150.879,-254.883,-840.82,123.535,0,0
1586465054,-109.375,-475.098,-840.332,-147.949,0,0
1586465054,81.055,150.391,-708.984,-198.73,0,0
1586465054,62.988,445.312,-641.602,72.754,0,0
1586465054,-131.348,-89.844,-792.48,106.934,0,0
1586465054,-149.902,-492.676,-838.379,-121.094,0,0
1586465054,38.574,42.48,-714.844,-201.66,0,0
1586465054,104.98,139.16,-771.973,-1.953,0,0
1586465054,-68.359,-589.844,-888.184,133.301,0,0
1586465054,-163.574,-827.637,-934.57,-34.668,0,0
1586465054,-32.715,-154.297,-787.109,-225.586,0,0
1586465054,102.539,359.375,-682.129,-39.062,0,0
1586465054,-17.09,166.992,-733.398,154.785,0,0
1586465054,-183.594,-57.129,-773.438,-0.977,0,0
1586465054,-83.496,145.508,-755.371,-196.777,0,0
1586465054,99.609,198.73,-750.488,-104.004,0,0
1586465054,59.57,81.055,-766.602,117.676,0,0
1586465054,-120.605,-20.02,-779.297,87.402,0,0
1586465054,-118.652,-35.156,-806.152,-126.953,0,0
1586465054,76.66,-304.688,-886.719,-132.324,0,0
1586465054,88.379,-500.488,-847.656,80.078,0,0
1586465054,-122.559,-358.887,-807.129,112.305,0,0
1586465054,-179.688,-238.77,-825.195,-99.121,0,0
1586465054,14.16,-171.387,-754.395,-227.539,0,0
1586465054,105.957,-107.422,-752.441,-9.766,0,0
1586465054,-65.918,152.832,-731.934,141.113,0,0
1586465054,-187.988,40.039,-774.414,-57.617,0,0
1586465054,-73.73,-165.527,-795.41,-230.469,0,0
1586465054,87.402,160.645,-653.809,-69.336,0,0
1586465054,-20.508,387.207,-688.965,120.605,0,0
1586465054,-185.547,-79.102,-840.82,23.438,0,0
1586465054,-76.66,-529.785,-862.305,-153.809,0,0
1586465054,95.215,-339.844,-769.531,-127.441,0,0
1586465054,24.902,254.883,-659.18,82.52,0,0
1586465054,-175.293,120.605,-768.555,67.383,0,0
1586465054,-137.207,-753.418,-922.852,-146.973,0,0
1586465054,72.266,-597.168,-828.613,-183.105,0,0
1586465054,90.82,372.07,-631.836,37.598,0,0
1586465054,-108.887,207.031,-746.582,108.398,0,0
1586465054,-171.875,-423.34,-872.07,-83.984,0,0
1586465054,-10.254,-43.945,-736.816,-217.773,0,0
1586465054,98.145,556.641,-599.121,-48.828,0,0
1586465054,-41.504,176.27,-751.953,156.738,0,0
1586465054,-181.641,-574.219,-931.641,25.391,0,0
1586465054,-73.242,-449.707,-795.41,-205.566,0,0
1586465054,77.148,119.629,-704.102,-99.121,0,0
1586465054,-17.09,-180.176,-818.848,129.395,0,0
1586465054,-170.41,-699.707,-884.766,42.48,0,0
1586465054,-93.262,-193.359,-739.746,-188.477,0,0
1586465054,69.824,410.645,-655.273,-169.434,0,0
1586465054,44.434,189.941,-737.305,58.105,0,0
1586465054,-165.039,-73.242,-760.254,82.52,0,0
1586465054,-176.758,103.027,-718.262,-134.766,0,0
1586465054,26.367,287.109,-690.918,-205.078,0,0
1586465054,88.379,58.594,-770.508,49.316,0,0
1586465054,-85.449,-358.887,-851.074,145.996,0,0
1586465054,-148.926,-386.719,-826.172,-71.777,0,0
1586465054,-6.836,120.117,-707.031,-239.258,0,0
1586465054,86.914,-277.832,-821.777,-15.625,0,0
1586465054,-50.781,-614.746,-843.75,178.223,0,0
1586465054,-208.008,-125,-772.461,0.977,0,0
1586465054,-78.125,-268.066,-847.656,-198.242,0,0
1586465054,91.309,-185.059,-759.766,-78.613,0,0
1586465054,-0.977,115.234,-683.594,146.973,0,0
1586465054,-189.941,48.34,-759.766,52.734,0,0
1586465054,-128.418,-320.312,-870.605,-173.34,0,0
1586465054,62.5,-228.516,-840.82,-153.32,0,0
1586465054,55.664,-64.453,-766.113,84.961,0,0
1586465054,-119.629,-187.988,-794.922,95.215,0,0
1586465054,-162.109,-551.758,-894.043,-113.77,0,0
1586465054,25.391,-716.309,-863.77,-182.617,0,0
1586465054,114.746,252.441,-590.82,5.859,0,0
1586465054,-61.035,481.445,-678.223,132.324,0,0
1586465054,-175.293,-221.68,-830.566,-25.879,0,0
1586465054,-33.203,-127.441,-723.633,-214.844,0,0
1586465054,111.816,247.559,-710.449,-64.941,0,0
1586465054,-32.227,30.273,-811.523,136.719,0,0
1586465054,-187.5,-323.242,-810.547,7.324,0,0
1586465054,-89.844,-178.711,-765.137,-200.195,0,0
1586465054,79.59,-36.133,-800.781,-105.957,0,0
1586465054,19.043,-86.914,-781.738,122.559,0,0
1586465054,-153.32,-586.914,-871.582,90.82,0,0
1586465054,-126.465,-628.906,-856.445,-135.254,0,0
1586465054,47.363,307.129,-646.973,-184.57,0,0
1586465054,59.082,383.301,-673.34,50.293,0,0
1586465054,-135.254,-41.992,-775.879,100.098,0,0
1586465054,-184.57,-11.719,-744.141,-103.516,0,0
1586465054,8.301,282.715,-683.105,-214.844,0,0
1586465054,136.719,213.867,-740.234,-1.465,0,0
1586465054,-37.598,-76.172,-827.148,147.461,0,0
1586465054,-179.199,-309.082,-831.543,-55.176,0,0
1586465054,-37.109,-354.98,-788.574,-190.918,0,0
1586465054,128.418,-166.504,-805.176,-25.391,0,0
1586465054,16.113,-628.418,-866.211,169.922,0,0
1586465054,-180.176,-518.555,-791.016,31.738,0,0
1586465054,-68.848,38.086,-790.039,-205.078,0,0
1586465054,121.582,-84.961,-752.93,-117.188,0,0
1586465054,48.828,-109.375,-725.098,117.676,0,0
1586465054,-148.926,131.348,-724.609,93.75,0,0
1586465054,-132.324,17.09,-783.691,-116.699,0,0
1586465054,53.223,-157.715,-798.828,-179.688,0,0
1586465054,71.289,86.426,-701.66,54.199,0,0
1586465054,-107.422,123.047,-763.672,150.391,0,0
1586465054,-156.738,-321.777,-867.676,-68.848,0,0
1586465054,20.02,-722.168,-877.441,-179.199,0,0
1586465054,115.234,-564.453,-817.871,10.742,0,0
1586465054,-39.551,70.801,-709.473,132.812,0,0
1586465054,-158.691,-109.375,-810.059,-19.531,0,0
1586465054,7.812,-271.484,-820.801,-179.688,0,0
1586465054,191.895,192.871,-693.848,-58.105,0,0
1586465054,22.461,329.102,-707.031,125,0,0
1586465054,-190.918,-108.887,-822.266,11.23,0,0
1586465054,-104.98,-313.965,-856.934,-206.543,0,0
1586465054,79.102,107.91,-718.262,-166.504,0,0
1586465054,65.43,338.867,-692.871,76.172,0,0
1586465054,-132.324,-299.316,-894.043,66.406,0,0
1586465054,-122.07,-736.816,-920.41,-146.484,0,0
1586465054,94.238,-278.809,-800.293,-174.316,0,0
1586465054,116.699,218.262,-729.98,53.223,0,0
1586465054,-73.73,-56.641,-761.23,118.164,0,0
1586465054,-154.297,-536.621,-846.191,-95.215,0,0
1586465054,-3.906,-73.73,-762.695,-217.285,0,0
1586465054,131.836,478.516,-670.41,-26.855,0,0
1586465054,-6.348,60.547,-764.16,153.32,0,0
1586465054,-157.715,-355.957,-833.496,-0.488,0,0
1586465054,-57.617,38.086,-745.605,-229.98,0,0
1586465054,94.727,441.406,-681.641,-114.746,0,0
1586465054,27.344,44.922,-782.715,130.859,0,0
1586465054,-154.297,-387.207,-832.031,47.852,0,0
1586465054,-113.77,-139.648,-791.504,-168.457,0,0
1586465054,85.938,146.973,-752.93,-139.648,0,0
1586465054,84.961,-169.434,-779.297,97.656,0,0
1586465054,-133.301,-385.254,-801.27,95.215,0,0
1586465054,-159.18,-111.328,-796.875,-143.066,0,0
1586465054,55.664,-86.914,-800.293,-194.336,0,0
1586465054,119.141,-186.035,-754.883,40.527,0,0
1586465054,-59.082,-42.48,-724.609,127.93,0,0
1586465054,-128.906,-87.891,-801.758,-83.008,0,0
1586465054,29.785,-261.23,-860.84,-219.727,0,0
1586465054,159.18,-356.934,-846.191,-29.785,0,0
1586465054,-5.371,-259.766,-771.484,159.668,0,0
1586465054,-181.152,-284.18,-830.078,37.598,0,0
1586465054,-79.59,-526.367,-896.973,-160.645,0,0
1586465054,91.309,-676.27,-861.816,-75.195,0,0
1586465054,28.32,-204.102,-710.449,123.047,0,0
1586465054,-169.434,78.125,-750.977,56.152,0,0
1586465054,-147.461,-303.711,-831.055,-152.832,0,0
1586465054,45.41,-66.895,-704.59,-160.645,0,0
1586465054,72.266,539.551,-593.75,70.801,0,0
1586465054,-125.488,271.973,-736.328,111.816,0,0
1586465054,-189.453,-343.75,-859.375,-125,0,0
1586465054,-2.93,-409.18,-812.5,-242.188,0,0
1586465054,74.707,143.555,-650.879,-37.598,0,0
1586465054,-83.008,262.695,-689.453,124.023,0,0
1586465054,-184.57,-389.16,-861.328,-40.527,0,0
1586465054,-61.035,-281.738,-748.047,-229.004,0,0
1586465054,85.449,336.914,-628.418,-73.73,0,0
1586465054,-20.508,231.934,-731.934,136.23,0,0
1586465054,-175.781,-609.863,-863.281,23.438,0,0
1586465054,-83.496,-548.34,-767.09,-197.266,0,0
1586465054,88.379,248.535,-648.438,-148.438,0,0
1586465054,66.406,76.172,-755.859,88.379,0,0
1586465054,-105.957,-392.578,-895.02,70.801,0,0
1586465054,-115.723,-609.375,-880.371,-147.461,0,0
1586465054,58.105,-283.203,-742.676,-162.598,0,0
1586465054,94.238,-118.652,-761.23,76.66,0,0
1586465054,-109.863,-788.574,-915.039,136.719,0,0
1586465054,-193.848,-515.625,-816.406,-92.285,0,0
1586465054,-21.484,229.98,-661.133,-212.891,0,0
1586465054,84.961,169.922,-647.949,1.953,0,0
1586465054,-52.246,-12.695,-708.496,141.113,0,0
1586465054,-185.547,13.672,-744.141,-26.855,0,0
1586465054,-69.336,-27.832,-773.438,-180.664,0,0
1586465054,79.102,26.855,-729.492,-46.387,0,0
1586465054,-11.719,68.848,-698.73,131.348,0,0
1586465054,-198.73,-396.973,-855.957,33.691,0,0
1586465054,-153.809,-540.039,-852.051,-166.504,0,0
1586465054,42.48,-648.438,-842.773,-102.051,0,0
1586465054,30.762,-552.246,-801.758,142.09,0,0
1586465054,-161.133,-10.254,-740.234,112.793,0,0
1586465054,-163.574,-372.559,-863.77,-123.535,0,0
1586465054,20.508,-337.402,-779.297,-193.359,0,0
1586465054,68.359,86.914,-705.078,36.621,0,0
1586465054,-114.746,17.09,-764.16,111.328,0,0
1586465054,-190.918,-404.297,-861.328,-80.566,0,0
1586465054,-10.742,-393.555,-831.055,-214.844,0,0
1586465054,114.746,150.391,-700.195,-38.086,0,0
1586465054,-41.016,-69.336,-793.945,152.832,0,0
1586465054,-192.383,-652.832,-906.738,-1.953,0,0
1586465054,-58.105,-915.039,-895.508,-176.758,0,0
1586465054,84.961,-207.52,-683.594,-92.773,0,0
1586465054,-7.812,473.145,-613.77,116.699,0,0
1586465054,-163.086,-37.598,-756.348,64.941,0,0
1586465054,-104.98,-235.352,-769.043,-153.809,0,0
1586465054,88.867,286.133,-655.273,-137.207,0,0
1586465054,70.801,256.836,-705.078,70.801,0,0
1586465054,-150.879,-217.773,-819.336,94.727,0,0
1586465054,-193.848,-172.852,-736.816,-143.066,0,0
1586465054,21.484,285.156,-660.645,-215.82,0,0
1586465054,109.375,258.301,-723.633,41.016,0,0
1586465054,-76.66,-544.434,-866.211,163.574,0,0
1586465054,-183.105,-696.777,-868.164,-31.25,0,0
1586465054,-43.457,185.059,-648.438,-238.77,0,0
1586465054,109.863,428.223,-636.23,-67.871,0,0
1586465054,-8.789,93.75,-729.492,124.512,0,0
1586465054,-154.785,-10.254,-728.516,-43.457,0,0
1586465054,-34.18,223.633,-678.223,-216.309,0,0
1586465054,134.277,230.957,-710.449,-98.145,0,0
1586465054,63.965,75.684,-754.395,105.469,0,0
1586465054,-133.789,-5.859,-779.785,53.711,0,0
1586465054,-111.328,-262.695,-837.402,-162.598,0,0
1586465054,83.496,-413.086,-870.605,-152.832,0,0
1586465054,103.027,-460.938,-846.191,90.332,0,0
1586465054,-90.82,-372.559,-787.109,115.723,0,0
1586465054,-137.695,-186.035,-785.645,-108.887,0,0
1586465054,45.898,14.648,-699.219,-174.316,0,0
1586465054,132.324,227.051,-657.715,37.109,0,0
1586465054,-60.059,373.047,-645.02,117.188,0,0
1586465054,-173.34,150.391,-737.305,-63.965,0,0
1586465054,-1.953,-80.078,-750.977,-210.449,0,0
1586465054,136.719,52.246,-697.754,-37.598,0,0
1586465054,11.23,192.871,-730.957,144.531,0,0
1586465054,-150.391,41.016,-770.02,12.207,0,0
1586465054,-82.52,-392.578,-856.445,-172.852,0,0
1586465054,124.023,-367.188,-805.176,-98.633,0,0
1586465054,69.336,57.129,-713.867,97.168,0,0
1586465054,-153.32,30.273,-769.531,41.992,0,0
1586465054,-117.676,-552.734,-837.402,-169.434,0,0
1586465054,56.152,-286.133,-685.059,-188.965,0,0
1586465054,66.406,377.93,-627.441,44.922,0,0
1586465054,-102.539,9.766,-775.391,112.305,0,0
1586465054,-156.25,-357.91,-832.52,-86.426,0,0
1586465054,5.371,-0.977,-707.031,-199.707,0,0
1586465054,92.773,468.262,-622.559,-26.855,0,0
1586465054,-57.129,97.168,-802.734,120.117,0,0
1586465054,-187.988,-641.113,-924.316,-36.621,0,0
1586465054,-59.082,-399.414,-755.371,-212.891,0,0
1586465054,111.328,83.496,-696.777,-71.289,0,0
1586465054,12.695,-325.684,-848.145,130.859,0,0
1586465054,-176.758,-856.934,-941.895,39.062,0,0
1586465054,-124.023,-527.832,-825.684,-181.641,0,0
1586465054,58.594,200.195,-669.434,-156.25,0,0
1586465054,47.363,-116.211,-764.16,91.797,0,0
1586465054,-157.715,-526.855,-848.145,80.566,0,0
1586465054,-169.922,-133.789,-768.555,-154.785,0,0
1586465054,14.16,200.684,-685.547,-196.777,0,0
1586465054,47.363,270.02,-697.266,31.738,0,0
1586465054,-135.254,-207.52,-813.965,122.559,0,0
1586465054,-189.453,-369.141,-816.406,-86.426,0,0
1586465054,-13.184,43.457,-737.793,-233.398,0,0
1586465054,90.332,-183.105,-743.164,-37.109,0,0
1586465054,-65.43,-307.129,-713.867,104.98,0,0
1586465054,-172.363,131.836,-693.848,-50.293,0,0
1586465055,-25.391,49.316,-745.605,-212.402,0,0
1586465055,111.816,-337.402,-810.059,-67.383,0,0
1586465055,-43.945,-187.988,-744.629,128.418,0,0
1586465055,-239.746,133.789,-711.914,28.809,0,0
1586465055,-137.207,-78.125,-792.48,-155.762,0,0
1586465055,67.871,78.613,-773.926,-129.395,0,0
1586465055,9.277,184.57,-751.953,87.891,0,0
1586465055,-223.633,-150.391,-802.734,53.223,0,0
1586465055,-218.75,-545.41,-899.902,-178.711,0,0
1586465055,-10.742,-754.883,-844.238,-220.703,0,0
1586465055,41.504,96.191,-608.887,-28.809,0,0
1586465055,-145.02,429.199,-694.336,71.289,0,0
1586465055,-239.746,-183.594,-795.898,-111.328,0,0
1586465055,-102.539,-104.004,-721.191,-257.812,0,0
1586465055,54.199,447.266,-623.047,-75.195,0,0
1586465055,-32.715,324.707,-713.379,98.145,0,0
1586465055,-184.082,-340.332,-858.398,-39.062,0,0
1586465055,-111.816,-266.602,-764.16,-231.934,0,0
1586465055,50.293,226.074,-676.758,-102.539,0,0
1586465055,3.906,154.785,-734.863,134.277,0,0
1586465055,-190.918,-416.016,-797.852,50.293,0,0
1586465055,-145.996,-578.125,-826.172,-184.082,0,0
1586465055,48.34,36.621,-720.215,-197.266,0,0
1586465055,31.738,403.809,-647.461,46.387,0,0
1586465055,-160.645,-397.461,-812.5,108.398,0,0
1586465055,-193.848,-522.949,-774.902,-122.07,0,0
1586465055,-10.254,356.445,-634.277,-210.449,0,0
1586465055,63.477,379.395,-672.363,28.32,0,0
1586465055,-112.793,60.547,-773.926,151.855,0,0
1586465055,-203.125,-64.941,-797.852,-41.992,0,0
1586465055,-71.289,-208.008,-833.008,-200.195,0,0
1586465055,64.941,-320.801,-849.609,-38.086,0,0
1586465055,-20.02,-762.207,-889.648,164.062,0,0
1586465055,-186.523,-654.297,-811.523,44.434,0,0
1586465055,-107.91,-56.641,-744.629,-182.129,0,0
1586465055,66.406,10.742,-722.656,-101.074,0,0
1586465055,7.324,52.734,-693.359,127.93,0,0
1586465055,-177.246,91.309,-714.355,59.57,0,0
1586465055,-148.926,-23.438,-768.066,-176.758,0,0
1586465055,34.668,-73.73,-748.535,-178.223,0,0
1586465055,63.965,135.742,-662.109,60.059,0,0
1586465055,-107.422,112.305,-766.602,129.395,0,0
1586465055,-148.438,-423.34,-875,-75.195,0,0
1586465055,13.672,-584.961,-831.055,-195.312,0,0
1586465055,62.988,-79.102,-697.754,-13.184,0,0
1586465055,-120.605,221.68,-696.289,101.074,0,0
1586465055,-222.656,-188.477,-850.098,-48.34,0,0
1586465055,-63.965,-669.434,-831.543,-186.035,0,0
1586465055,88.379,-132.324,-650.391,-56.152,0,0
1586465055,-24.902,370.117,-667.48,122.07,0,0
1586465055,-195.312,-244.629,-870.605,36.133,0,0
1586465055,-96.68,-505.859,-852.539,-153.32,0,0
1586465055,75.195,179.199,-651.855,-103.027,0,0
1586465055,30.273,375,-692.871,123.047,0,0
1586465055,-166.992,-420.898,-905.762,78.613,0,0
1586465055,-151.855,-739.258,-924.316,-154.297,0,0
1586465055,63.477,-338.867,-805.664,-178.711,0,0
1586465055,80.078,52.246,-718.262,20.02,0,0
1586465055,-99.121,-291.992,-826.66,113.281,0,0
1586465055,-124.023,-753.906,-905.273,-53.223,0,0
1586465055,31.738,-40.039,-729.004,-203.613,0,0
1586465055,126.953,227.539,-745.117,-30.273,0,0
1586465055,1.465,-499.023,-885.254,141.113,0,0
1586465055,-155.273,-779.297,-898.926,-14.648,0,0
1586465055,-85.449,-45.898,-741.699,-233.887,0,0
1586465055,82.031,312.988,-707.52,-92.285,0,0
1586465055,6.836,-42.969,-834.961,138.184,0,0
1586465055,-188.477,-450.684,-876.953,18.066,0,0
1586465055,-133.301,-185.059,-785.156,-205.078,0,0
1586465055,70.801,462.891,-650.391,-165.527,0,0
1586465055,72.266,-101.074,-753.418,88.379,0,0
1586465055,-126.465,-572.266,-846.191,102.539,0,0
1586465055,-149.902,123.047,-731.445,-130.371,0,0
1586465055,51.758,236.328,-739.746,-190.43,0,0
1586465055,114.746,302.246,-690.43,29.785,0,0
1586465055,-73.242,265.137,-721.191,94.727,0,0
1586465055,-162.598,-250.977,-861.328,-109.863,0,0
1586465055,24.414,-425.781,-883.301,-216.797,0,0
1586465055,150.879,-181.641,-798.828,-22.949,0,0
1586465055,-33.691,26.367,-727.051,105.469,0,0
1586465055,-208.008,-235.84,-848.633,-57.617,0,0
1586465055,-83.984,-630.371,-915.039,-227.051,0,0
1586465055,48.34,-492.676,-815.918,-165.527,0,0
1586465055,-86.914,152.832,-661.621,-3.906,0,0
1586465055,-278.809,193.359,-766.602,-73.242,0,0
1586465055,-259.766,-392.578,-838.867,-315.918,0,0
1586465055,-92.773,-184.57,-729.98,-324.219,0,0
1586465055,-147.949,436.035,-653.32,-166.016,0,0
1586465055,-387.695,220.215,-777.344,-186.523,0,0
1586465055,-409.18,-460.449,-873.535,-395.996,0,0
1586465055,-265.625,-541.992,-820.801,-507.812,0,0
1586465055,-223.633,-93.262,-783.203,-264.648,0,0
1586465055,-378.906,-86.426,-790.039,-170.898,0,0
1586465055,-477.539,-696.777,-902.344,-394.043,0,0
1586465055,-324.707,-694.336,-869.629,-530.762,0,0
1586465055,-191.406,277.344,-680.176,-370.605,0,0
1586465055,-280.273,253.906,-737.793,-144.043,0,0
1586465055,-391.113,-165.527,-813.965,-233.398,0,0
1586465055,-281.738,5.859,-769.531,-429.199,0,0
1586465055,-99.609,404.785,-640.625,-324.219,0,0
1586465055,-151.855,297.852,-701.66,-83.008,0,0
1586465055,-333.008,-225.586,-878.418,-136.23,0,0
1586465055,-286.621,-489.258,-889.16,-321.777,0,0
1586465055,-69.824,-97.168,-741.211,-302.734,0,0
1586465055,-26.367,37.109,-763.672,-57.617,0,0
1586465055,-166.504,-719.727,-907.227,25.391,0,0
1586465055,-180.664,-611.328,-820.801,-171.875,0,0
1586465055,-17.578,127.441,-723.145,-274.414,0,0
1586465055,87.891,152.344,-699.219,-46.875,0,0
1586465055,-39.062,-129.883,-757.812,135.254,0,0
1586465055,-152.344,-59.082,-802.734,-41.992,0,0
1586465055,-11.23,62.988,-781.738,-192.871,0,0
1586465055,172.852,-43.457,-717.285,-2.93,0,0
1586465055,98.145,-174.805,-747.559,201.172,0,0
1586465055,-73.242,-350.098,-859.863,92.773,0,0
1586465055,2.93,-364.258,-797.852,-93.262,0,0
1586465055,201.66,-399.902,-806.641,-10.742,0,0
1586465055,133.789,-443.848,-798.828,205.566,0,0
1586465055,-73.242,31.738,-702.637,145.996,0,0
1586465055,-30.762,-98.633,-782.227,-55.664,0,0
1586465055,179.688,7.324,-718.75,-52.246,0,0
1586465055,201.172,144.531,-687.5,161.621,0,0
1586465055,6.836,43.457,-739.746,222.656,0,0
1586465055,-42.969,-176.758,-818.359,43.457,0,0
1586465055,146.484,-238.281,-782.715,-78.613,0,0
1586465055,255.859,225.098,-660.645,122.07,0,0
