timestamps,TP9,AF7,AF8,TP10,Right AUX,Marker
1587071689,64.941,747.07,7.812,-90.82,0,0
1587071689,66.406,264.648,12.207,-27.344,0,0
1587071689,240.234,461.914,54.199,316.895,0,0
1587071689,262.695,977.051,65.918,325.195,0,0
1587071689,106.445,857.91,24.414,17.09,0,0
1587071689,55.176,115.234,-2.441,-61.523,0,0
1587071689,187.5,-114.258,43.457,255.371,0,0
1587071689,269.043,688.477,88.379,399.902,0,0
1587071689,161.621,-936.035,50.293,108.887,0,0
1587071689,40.039,264.16,-3.418,-105.957,0,0
1587071689,136.23,54.688,31.25,121.094,0,0
1587071689,285.156,922.363,78.613,375.977,0,0
1587071689,218.75,-998.047,46.875,220.703,0,0
1587071689,42.48,415.039,9.277,-61.523,0,0
1587071689,94.727,319.824,37.598,56.152,0,0
1587071689,264.16,899.902,77.637,354.004,0,0
1587071689,261.23,950.684,41.016,287.109,0,0
1587071689,78.125,326.172,-15.137,-44.434,0,0
1587071689,22.461,-34.668,2.441,-43.945,0,0
1587071689,187.5,605.957,50.293,266.602,0,0
1587071689,267.09,-939.941,28.809,311.035,0,0
1587071689,137.207,189.941,-2.93,39.551,0,0
1587071689,3.418,-292.48,28.32,-101.562,0,0
1587071689,128.906,569.824,67.383,159.18,0,0
1587071689,282.715,-983.398,65.43,375.488,0,0
1587071689,173.34,636.719,28.32,141.602,0,0
1587071689,-10.742,375.488,22.949,-141.602,0,0
1587071689,71.777,591.797,43.945,49.805,0,0
1587071689,255.859,895.02,40.527,346.191,0,0
1587071689,217.285,710.938,0.977,202.637,0,0
1587071689,53.223,160.645,-4.883,-56.641,0,0
1587071689,65.918,89.355,23.438,39.551,0,0
1587071689,235.352,393.555,22.461,303.223,0,0
1587071689,263.672,628.418,13.184,274.414,0,0
1587071689,76.172,770.02,17.578,-47.363,0,0
1587071689,20.02,539.062,4.395,-52.246,0,0
1587071689,194.824,506.836,12.207,268.555,0,0
1587071689,283.203,804.199,22.461,339.844,0,0
1587071689,129.883,921.387,-3.906,41.992,0,0
1587071689,17.09,739.258,-10.742,-111.328,0,0
1587071689,159.18,276.367,7.324,194.336,0,0
1587071689,290.527,151.367,26.855,421.875,0,0
1587071689,187.988,693.848,40.039,158.203,0,0
1587071689,30.273,650.391,12.695,-104.98,0,0
1587071689,121.094,66.406,2.93,118.652,0,0
1587071689,291.504,396.484,41.504,407.715,0,0
1587071689,235.352,-965.332,17.578,262.695,0,0
1587071689,49.805,487.305,-45.41,-83.008,0,0
1587071689,39.062,373.535,-4.883,-0.488,0,0
1587071689,221.191,889.648,42.48,342.285,0,0
1587071689,270.508,-962.402,-3.906,321.777,0,0
1587071689,111.816,736.816,-58.594,-8.301,0,0
1587071689,45.898,367.188,-74.219,-92.285,0,0
1587071689,196.777,595.215,-50.293,198.242,0,0
1587071689,323.242,-978.027,-42.48,320.801,0,0
1587071689,230.469,550.293,-93.262,62.988,0,0
1587071689,65.43,-270.508,-93.75,-115.723,0,0
1587071689,143.066,457.52,-18.555,130.859,0,0
1587071689,328.125,-903.32,14.16,373.535,0,0
1587071689,267.09,715.332,-22.461,184.082,0,0
1587071689,83.008,400.391,-46.875,-97.168,0,0
1587071689,120.605,515.625,-4.395,58.594,0,0
1587071689,295.898,805.664,34.18,338.379,0,0
1587071689,281.738,937.012,23.926,242.188,0,0
1587071689,105.957,741.699,-8.301,-63.477,0,0
1587071689,100.098,400.879,-8.301,-11.23,0,0
1587071689,270.508,764.16,42.969,306.641,0,0
1587071689,317.871,681.641,40.039,350.098,0,0
1587071689,149.902,316.895,32.715,30.273,0,0
1587071689,48.34,860.84,60.547,-94.727,0,0
1587071689,201.172,979.492,58.105,219.238,0,0
1587071689,321.777,926.27,60.059,385.254,0,0
1587071689,222.168,952.637,49.805,132.812,0,0
1587071689,78.125,950.195,27.344,-86.914,0,0
1587071689,170.898,950.684,29.785,121.094,0,0
1587071689,333.008,956.543,57.617,373.535,0,0
1587071689,250,958.984,42.969,204.102,0,0
1587071689,76.172,566.895,16.113,-100.586,0,0
1587071689,115.723,277.832,39.551,44.922,0,0
1587071689,295.898,523.926,78.125,363.281,0,0
1587071689,296.875,926.27,96.191,268.066,0,0
1587071689,113.77,969.238,47.852,-63.965,0,0
1587071689,82.52,680.176,44.434,-40.039,0,0
1587071689,240.723,785.645,87.891,280.273,0,0
1587071689,286.621,-984.375,71.289,342.773,0,0
1587071689,135.742,946.777,8.301,43.945,0,0
1587071689,43.457,576.172,-15.625,-72.754,0,0
1587071689,172.852,681.641,27.832,207.031,0,0
1587071689,294.434,-990.234,41.992,380.859,0,0
1587071689,200.195,924.316,16.113,158.203,0,0
1587071689,72.754,-53.223,-9.277,-69.336,0,0
1587071689,138.184,-166.016,34.668,107.422,0,0
1587071689,272.461,958.984,76.66,342.773,0,0
1587071689,228.027,956.055,21.484,205.078,0,0
1587071689,52.246,604.004,-4.395,-85.938,0,0
1587071689,66.895,723.633,26.855,6.836,0,0
1587071689,248.535,990.723,50.781,326.172,0,0
1587071689,292.969,958.984,27.344,309.082,0,0
1587071689,116.699,803.223,-9.766,-9.277,0,0
1587071689,63.477,761.719,-0.488,-42.969,0,0
1587071689,239.258,940.43,36.621,266.602,0,0
1587071689,297.363,950.195,38.574,363.77,0,0
1587071689,160.156,556.152,6.348,92.285,0,0
1587071689,58.594,323.73,6.348,-63.965,0,0
1587071689,160.645,761.719,36.621,185.547,0,0
1587071689,283.203,883.301,21.973,390.625,0,0
1587071689,192.383,505.859,-19.043,169.434,0,0
1587071689,8.301,580.566,4.883,-106.934,0,0
1587071689,75.195,893.555,57.129,72.754,0,0
1587071689,293.457,785.645,49.805,373.047,0,0
1587071689,266.602,668.457,4.883,254.883,0,0
1587071689,48.828,847.168,-1.465,-79.59,0,0
1587071689,64.453,786.621,30.273,0.977,0,0
1587071689,259.766,860.352,67.871,342.773,0,0
1587071689,296.387,958.496,71.777,344.238,0,0
1587071689,131.836,902.832,44.434,3.906,0,0
1587071689,52.734,675.293,18.555,-81.543,0,0
1587071689,194.824,379.395,39.551,246.582,0,0
1587071689,293.457,671.875,64.453,380.859,0,0
1587071689,167.48,-966.309,41.016,110.352,0,0
1587071689,29.297,585.938,6.348,-87.402,0,0
1587071689,151.855,410.156,31.738,159.668,0,0
1587071689,312.5,856.445,78.613,408.691,0,0
1587071689,204.102,-945.312,40.039,188.965,0,0
1587071689,30.762,656.738,-21.973,-108.887,0,0
1587071689,96.191,235.84,-0.488,61.035,0,0
1587071689,264.16,701.66,53.711,355.957,0,0
1587071689,245.117,-942.383,42.969,248.535,0,0
1587071689,76.172,449.219,-3.418,-42.48,0,0
1587071689,58.105,-258.301,25.391,10.254,0,0
1587071689,228.027,536.621,116.699,322.754,0,0
1587071689,289.062,-896.973,78.613,348.633,0,0
1587071689,118.164,643.555,14.16,32.715,0,0
1587071689,45.41,546.387,32.715,-69.336,0,0
1587071689,197.266,918.457,63.477,229.004,0,0
1587071689,296.875,-989.258,66.895,398.438,0,0
1587071689,180.664,769.043,35.645,110.84,0,0
1587071689,37.598,186.035,3.418,-128.418,0,0
1587071689,116.211,340.332,36.133,98.633,0,0
1587071689,254.395,-974.609,59.082,345.215,0,0
1587071689,219.727,562.5,13.672,193.359,0,0
1587071689,54.199,109.863,17.578,-105.957,0,0
1587071689,68.359,619.629,50.293,21.973,0,0
1587071689,259.766,968.262,61.523,359.375,0,0
1587071689,239.746,592.773,53.711,265.625,0,0
1587071689,14.16,364.258,28.809,-97.168,0,0
1587071689,-25.879,618.164,20.996,-117.676,0,0
1587071689,140.625,884.277,47.363,198.242,0,0
1587071689,196.777,-997.07,51.27,265.625,0,0
1587071689,25.879,672.852,13.672,-55.176,0,0
1587071689,-98.145,121.582,5.371,-193.359,0,0
1587071689,37.109,148.926,41.016,75.684,0,0
1587071689,150.879,310.059,56.152,231.934,0,0
1587071689,14.648,657.227,50.781,-18.066,0,0
1587071689,-98.633,679.688,10.742,-225.098,0,0
1587071689,31.25,459.961,20.02,9.766,0,0
1587071689,189.941,719.727,61.035,278.32,0,0
1587071689,128.418,-981.445,56.641,132.324,0,0
1587071689,-33.203,708.496,10.742,-138.672,0,0
1587071689,15.137,310.547,16.602,-33.203,0,0
1587071689,190.43,719.238,59.082,270.996,0,0
1587071689,208.496,939.941,27.832,244.629,0,0
1587071689,36.133,512.695,-35.645,-66.895,0,0
1587071689,-30.273,-325.195,-39.551,-88.379,0,0
1587071689,115.723,-6.836,29.297,191.895,0,0
1587071689,187.5,-910.156,45.898,257.324,0,0
1587071689,64.453,684.082,-23.438,6.836,0,0
1587071689,-30.762,147.949,-32.227,-161.133,0,0
1587071689,81.055,612.305,32.227,97.656,0,0
1587071689,212.891,-940.43,60.059,314.453,0,0
1587071689,135.742,792.48,17.578,80.566,0,0
1587071689,-26.855,344.238,-5.371,-187.5,0,0
1587071689,35.156,555.176,37.109,-20.508,0,0
1587071689,216.309,-996.582,55.176,291.504,0,0
1587071689,190.43,800.781,16.113,191.895,0,0
1587071689,8.301,-108.887,-13.672,-121.582,0,0
1587071689,4.395,204.102,42.969,-66.895,0,0
1587071689,183.105,998.047,77.637,250.488,0,0
1587071689,247.559,884.766,58.594,273.926,0,0
1587071689,91.309,823.73,34.668,-55.664,0,0
1587071689,9.277,727.051,18.555,-121.582,0,0
1587071689,161.621,779.297,52.246,212.891,0,0
1587071689,255.859,954.59,72.754,332.031,0,0
1587071689,114.258,997.07,32.227,41.992,0,0
1587071689,-9.766,703.613,0.977,-134.766,0,0
1587071689,111.816,580.078,20.508,128.418,0,0
1587071689,265.625,645.02,46.387,388.672,0,0
1587071689,198.73,696.289,35.645,188.477,0,0
1587071689,26.367,863.281,10.254,-110.84,0,0
1587071689,87.402,707.031,6.348,57.129,0,0
1587071689,254.395,827.148,34.668,347.168,0,0
1587071690,220.215,990.723,45.898,253.418,0,0
1587071690,55.664,826.172,21.484,-78.613,0,0
1587071690,43.945,518.066,20.02,-53.711,0,0
1587071690,210.449,715.332,59.082,289.062,0,0
1587071690,257.812,-989.258,58.105,324.707,0,0
1587071690,111.328,796.387,24.414,-0.977,0,0
1587071690,27.832,170.41,25.391,-63.477,0,0
1587071690,155.762,105.469,50.293,224.121,0,0
1587071690,262.695,761.23,68.359,348.145,0,0
1587071690,148.926,-930.176,41.504,83.496,0,0
1587071690,24.414,306.152,-0.977,-117.188,0,0
1587071690,103.027,-36.133,37.109,127.441,0,0
1587071690,250,875,101.074,351.562,0,0
1587071690,212.402,-931.152,77.148,197.266,0,0
1587071690,35.645,438.477,21.484,-93.75,0,0
1587071690,64.453,330.078,45.41,22.461,0,0
1587071690,245.605,939.453,104.492,330.078,0,0
1587071690,250.977,-975.586,72.266,262.695,0,0
1587071690,67.383,361.816,11.719,-61.035,0,0
1587071690,20.02,-112.793,29.297,-78.125,0,0
1587071690,180.664,524.902,90.82,218.262,0,0
1587071690,258.301,-967.773,87.402,298.828,0,0
1587071690,132.324,129.883,26.367,30.273,0,0
1587071690,19.043,-377.441,62.012,-121.582,0,0
1587071690,130.371,465.332,135.742,153.32,0,0
1587071690,261.719,894.531,148.438,348.633,0,0
1587071690,163.574,622.559,124.512,102.051,0,0
1587071690,-1.953,242.676,122.07,-141.113,0,0
1587071690,91.797,484.863,158.691,72.266,0,0
1587071690,268.066,773.438,164.062,330.078,0,0
1587071690,195.801,520.02,127.441,181.641,0,0
1587071690,9.277,5.859,105.957,-104.98,0,0
1587071690,31.738,-193.359,143.555,-4.883,0,0
1587071690,225.098,81.543,175.781,325.684,0,0
1587071690,245.117,8.789,155.762,305.176,0,0
1587071690,54.199,-141.602,145.02,-41.504,0,0
1587071690,2.441,-73.242,151.855,-92.773,0,0
1587071690,161.621,242.188,182.129,224.121,0,0
1587071690,238.281,710.938,172.363,288.574,0,0
1587071690,95.703,600.098,120.605,-12.207,0,0
1587071690,-28.32,24.414,123.047,-145.996,0,0
1587071690,90.82,59.57,161.621,97.168,0,0
1587071690,236.816,390.625,179.688,289.062,0,0
1587071690,164.062,387.695,179.199,89.355,0,0
1587071690,14.648,83.496,173.34,-154.785,0,0
1587071690,75.195,-523.926,195.312,59.57,0,0
1587071690,232.91,-129.395,258.301,353.516,0,0
1587071690,186.523,660.645,253.418,203.613,0,0
1587071690,7.324,50.781,212.891,-105.469,0,0
1587071690,29.785,-347.656,243.164,-36.133,0,0
1587071690,214.355,164.551,282.715,267.09,0,0
1587071690,239.258,795.898,271.973,248.047,0,0
1587071690,99.609,341.309,212.402,-44.434,0,0
1587071690,26.367,-393.555,177.246,-108.398,0,0
1587071690,165.527,-113.281,216.797,173.828,0,0
1587071690,311.523,444.824,248.535,335.449,0,0
1587071690,190.43,-10.742,202.148,90.82,0,0
1587071690,16.602,-632.812,205.566,-121.582,0,0
1587071690,114.258,14.16,276.855,109.863,0,0
1587071690,270.02,848.145,302.246,359.375,0,0
1587071690,221.191,354.492,233.398,163.574,0,0
1587071690,38.086,-760.742,204.59,-133.789,0,0
1587071690,73.242,-274.414,282.227,3.418,0,0
1587071690,273.926,610.84,295.898,332.031,0,0
1587071690,247.07,412.109,239.258,250.977,0,0
1587071690,30.273,-318.848,202.148,-108.398,0,0
1587071690,37.598,-573.73,228.027,-68.359,0,0
1587071690,226.562,-40.527,269.531,281.25,0,0
1587071690,265.625,-115.723,231.934,309.57,0,0
1587071690,87.891,-629.883,200.684,-22.949,0,0
1587071690,-23.926,-235.84,219.238,-127.441,0,0
1587071690,145.996,67.383,219.238,187.988,0,0
1587071690,274.414,388.184,223.633,344.238,0,0
1587071690,158.691,251.953,191.895,80.078,0,0
1587071690,17.578,-376.465,170.898,-133.789,0,0
1587071690,118.164,-421.875,201.172,103.027,0,0
1587071690,262.207,131.836,230.469,359.863,0,0
1587071690,209.473,342.773,203.125,185.547,0,0
1587071690,50.781,-361.816,149.902,-81.543,0,0
1587071690,66.895,-907.227,157.227,21.973,0,0
1587071690,229.492,-609.375,196.289,309.082,0,0
1587071690,212.402,60.059,202.148,232.91,0,0
1587071690,39.551,88.867,158.203,-119.141,0,0
1587071690,37.598,-598.145,136.23,-105.957,0,0
1587071690,210.449,-798.34,190.918,245.117,0,0
1587071690,255.371,154.785,243.652,300.781,0,0
1587071690,120.605,268.555,197.754,6.348,0,0
1587071690,59.57,-556.641,168.945,-138.184,0,0
1587071690,166.504,-350.586,227.051,118.652,0,0
1587071690,253.418,408.203,253.906,317.871,0,0
1587071690,163.086,80.078,203.613,85.938,0,0
1587071690,20.996,-839.844,156.25,-141.113,0,0
1587071690,95.703,-700.195,199.707,59.57,0,0
1587071690,243.652,246.094,221.68,311.035,0,0
1587071690,182.617,176.27,147.461,176.758,0,0
1587071690,18.066,-534.18,125.977,-118.164,0,0
1587071690,57.617,-525.879,177.246,-38.086,0,0
1587071690,236.328,245.117,217.773,288.086,0,0
1587071690,255.859,406.738,190.918,295.41,0,0
1587071690,83.008,-364.258,163.086,-34.18,0,0
1587071690,27.344,-561.035,195.801,-97.168,0,0
1587071690,184.57,-197.266,211.914,216.309,0,0
1587071690,257.324,-47.363,198.73,302.246,0,0
1587071690,130.371,-431.152,156.25,0.977,0,0
1587071690,4.883,-794.922,133.301,-149.414,0,0
1587071690,113.281,-370.117,159.668,108.887,0,0
1587071690,282.715,-223.633,148.438,326.172,0,0
1587071690,166.504,-409.668,141.113,124.512,0,0
1587071690,-5.371,-413.086,141.602,-166.992,0,0
1587071690,68.359,-451.66,157.715,14.16,0,0
1587071690,245.605,-571.777,166.016,340.82,0,0
1587071690,225.098,-590.82,167.969,235.84,0,0
1587071690,49.316,-360.352,181.152,-96.191,0,0
1587071690,73.73,-445.312,164.551,-40.039,0,0
1587071690,280.273,-756.836,157.715,325.195,0,0
1587071690,285.645,-794.434,181.152,293.457,0,0
1587071690,58.594,-240.234,192.383,-91.797,0,0
1587071690,1.953,-299.316,174.805,-125.488,0,0
1587071690,162.109,-419.922,186.035,190.918,0,0
1587071690,256.348,153.809,194.336,308.105,0,0
1587071690,132.324,364.258,168.457,42.48,0,0
1587071690,13.184,-336.914,144.531,-129.883,0,0
1587071690,119.141,-483.887,180.664,114.746,0,0
1587071690,262.695,285.156,209.473,329.59,0,0
1587071690,205.566,170.41,145.996,148.438,0,0
1587071690,26.367,-711.914,96.191,-124.023,0,0
1587071690,69.824,-872.559,125.977,24.414,0,0
1587071690,250.488,-381.348,156.25,336.426,0,0
1587071690,236.328,-163.086,127.93,217.285,0,0
1587071690,70.801,-696.777,93.75,-98.145,0,0
1587071690,55.176,-812.988,117.676,-54.199,0,0
1587071690,206.055,-10.254,160.645,265.625,0,0
1587071690,248.047,528.809,143.555,311.035,0,0
1587071690,116.211,-248.047,62.012,45.41,0,0
1587071690,39.551,-912.109,54.688,-28.32,0,0
1587071690,169.922,-115.234,129.395,211.426,0,0
1587071690,264.648,497.559,128.906,345.215,0,0
1587071690,136.719,62.012,87.891,84.473,0,0
1587071690,-1.465,-767.578,64.453,-137.207,0,0
1587071690,92.773,-837.891,97.168,83.984,0,0
1587071690,255.859,11.23,147.461,354.98,0,0
1587071690,218.75,-213.867,107.422,219.238,0,0
1587071690,21.973,-926.758,99.121,-102.051,0,0
1587071690,42.48,-380.859,144.043,-2.441,0,0
1587071690,250.488,94.238,144.043,339.844,0,0
1587071690,251.465,-5.371,108.887,269.531,0,0
1587071690,51.27,-308.105,84.961,-66.895,0,0
1587071690,12.695,-331.055,103.516,-71.289,0,0
1587071690,193.848,-103.027,120.117,260.742,0,0
1587071690,257.324,44.434,121.582,324.219,0,0
1587071690,100.098,-242.676,110.84,16.602,0,0
1587071690,8.301,-708.496,107.422,-104.98,0,0
1587071690,162.109,-722.656,124.512,173.34,0,0
1587071690,279.297,-146.973,136.719,340.332,0,0
1587071690,165.527,57.129,103.027,74.219,0,0
1587071690,31.738,-575.195,85.938,-145.508,0,0
1587071690,101.074,-848.633,108.887,76.172,0,0
1587071690,259.277,-517.09,130.371,352.051,0,0
1587071690,197.754,176.758,133.301,205.566,0,0
1587071690,7.324,-82.52,83.008,-122.559,0,0
1587071690,38.086,-496.094,104.004,-27.832,0,0
1587071690,217.285,-19.043,159.668,299.805,0,0
1587071690,243.652,161.133,139.648,258.789,0,0
1587071690,59.082,-383.789,91.309,-84.473,0,0
1587071690,23.926,-942.871,90.82,-80.078,0,0
1587071690,202.637,-651.367,155.762,271.484,0,0
1587071690,267.09,329.59,176.758,321.777,0,0
1587071690,119.141,125,108.398,28.809,0,0
1587071690,-4.883,-669.434,81.543,-135.742,0,0
1587071690,125.488,-582.031,123.535,115.234,0,0
1587071690,276.367,130.371,151.367,324.707,0,0
1587071690,189.453,37.598,100.586,118.652,0,0
1587071690,0.488,-680.664,56.641,-159.668,0,0
1587071690,66.895,-557.129,96.191,10.742,0,0
1587071690,275.391,-145.508,133.301,329.102,0,0
1587071690,246.094,-274.902,113.281,216.309,0,0
1587071690,46.387,-855.469,95.215,-113.77,0,0
1587071690,20.996,-671.387,126.465,-77.637,0,0
1587071690,194.824,104.492,153.809,235.84,0,0
1587071690,250.488,-6.836,112.305,254.883,0,0
1587071690,92.773,-801.758,72.266,-35.156,0,0
1587071690,0.977,-719.727,91.797,-123.047,0,0
1587071690,164.062,-189.941,105.957,197.754,0,0
1587071690,277.832,21.973,105.469,347.656,0,0
1587071690,125.977,-291.504,71.777,48.34,0,0
1587071690,-4.883,-658.691,60.059,-168.945,0,0
1587071690,105.469,-498.047,87.891,88.867,0,0
1587071690,255.371,-510.742,95.215,363.281,0,0
1587071690,171.875,-588.867,80.078,148.438,0,0
1587071690,-15.137,-326.172,72.754,-174.805,0,0
1587071690,62.012,-354.98,62.988,-14.648,0,0
1587071690,252.93,-17.578,89.844,315.918,0,0
1587071690,236.328,322.266,111.816,230.469,0,0
1587071690,49.316,-39.062,76.66,-82.52,0,0
1587071690,33.691,-517.578,68.359,-48.34,0,0
1587071690,217.773,-211.426,97.656,253.418,0,0
1587071690,269.531,431.152,96.191,299.805,0,0
1587071690,131.836,182.617,56.152,-8.301,0,0
1587071690,57.617,-708.496,62.988,-103.516,0,0
1587071690,195.312,-993.652,120.605,224.609,0,0
1587071690,299.805,-368.652,159.18,355.469,0,0
1587071690,146.484,-35.645,114.258,65.918,0,0
1587071690,0,-624.023,78.613,-136.23,0,0
1587071690,108.887,-554.688,109.863,98.145,0,0
1587071690,243.652,363.77,116.699,333.008,0,0
1587071690,177.734,589.355,59.57,133.789,0,0
1587071690,23.438,-272.461,-0.977,-167.969,0,0
1587071690,55.664,-575.195,48.34,-9.277,0,0
1587071690,273.438,182.617,111.328,357.91,0,0
1587071690,312.012,312.012,92.285,297.363,0,0
1587071690,108.398,-607.422,69.336,-29.785,0,0
1587071690,43.945,-896.484,119.629,-60.547,0,0
1587071690,210.449,-8.789,166.992,247.07,0,0
1587071690,290.039,404.785,137.207,332.031,0,0
1587071690,136.719,-470.703,69.336,32.715,0,0
1587071690,0.488,-878.906,62.012,-116.699,0,0
1587071690,133.301,-77.148,115.723,157.715,0,0
1587071690,290.039,360.84,120.605,352.051,0,0
1587071690,192.871,-98.633,74.707,100.586,0,0
1587071690,48.34,-638.184,44.922,-159.668,0,0
1587071690,125,-362.793,73.73,52.734,0,0
1587071690,266.602,158.203,83.496,350.098,0,0
1587071690,218.262,-56.152,44.434,197.754,0,0
1587071690,39.062,-756.348,14.16,-121.094,0,0
1587071690,44.922,-812.988,25.879,-20.996,0,0
1587071690,239.258,-315.918,52.246,323.242,0,0
1587071690,285.645,-602.051,53.223,323.242,0,0
1587071690,99.121,-546.875,88.867,-4.883,0,0
1587071690,58.594,-266.113,118.164,-33.203,0,0
1587071690,257.324,-249.512,147.461,293.945,0,0
1587071690,328.613,291.992,162.598,361.816,0,0
1587071690,166.992,452.637,117.676,54.199,0,0
1587071690,66.406,-111.328,84.473,-100.098,0,0
1587071690,190.43,-296.875,99.609,178.711,0,0
1587071690,304.199,15.625,101.562,408.691,0,0
1587071690,190.43,57.617,73.73,168.457,0,0
1587071690,37.598,-177.734,52.246,-117.676,0,0
1587071690,127.93,-776.367,57.617,72.266,0,0
1587071690,295.898,-393.555,131.348,359.375,0,0
1587071690,257.324,583.008,131.348,219.238,0,0
1587071690,89.355,-62.012,42.48,-88.867,0,0
1587071690,91.797,-650.879,74.707,13.184,0,0
1587071690,259.766,84.961,156.738,343.75,0,0
1587071690,328.125,618.164,125.488,350.586,0,0
1587071690,176.758,-149.902,62.5,55.176,0,0
1587071690,55.664,-769.531,72.754,-14.16,0,0
1587071690,211.426,-331.055,116.699,277.344,0,0
1587071690,337.891,94.238,104.004,386.719,0,0
1587071690,188.965,-359.863,62.988,121.582,0,0
1587071690,54.688,-843.262,72.754,-54.688,0,0
1587071690,174.805,-291.504,136.719,168.457,0,0
1587071690,342.285,602.539,177.734,424.805,0,0
1587071690,277.832,237.305,105.469,275.391,0,0
1587071690,102.051,-791.992,49.316,-42.48,0,0
1587071690,123.047,-345.703,100.098,80.566,0,0
1587071690,298.828,387.695,115.723,384.277,0,0
1587071691,305.176,363.281,73.242,273.926,0,0
1587071691,106.445,-162.109,9.277,-38.086,0,0
1587071691,83.008,-601.074,16.602,0,0,0
1587071691,271.973,-212.891,81.543,301.27,0,0
1587071691,331.543,-257.812,80.078,354.492,0,0
1587071691,170.41,-663.574,75.684,58.594,0,0
1587071691,71.289,-279.785,100.586,-81.055,0,0
1587071691,225.586,-180.176,72.754,222.656,0,0
1587071691,343.75,95.703,51.758,392.578,0,0
1587071691,231.445,200.684,47.852,131.836,0,0
1587071691,81.055,-225.098,56.152,-59.57,0,0
1587071691,171.875,-272.461,83.984,170.41,0,0
1587071691,346.68,134.277,90.332,432.129,0,0
1587071691,279.297,301.758,70.801,254.395,0,0
1587071691,96.191,-375,32.715,-48.34,0,0
1587071691,153.32,-887.207,40.527,94.238,0,0
1587071691,350.586,-681.152,103.516,406.25,0,0
1587071691,302.246,84.473,107.91,299.316,0,0
1587071691,103.516,-150.391,27.832,-31.738,0,0
1587071691,97.656,-868.164,46.875,3.906,0,0
1587071691,272.461,-248.047,120.117,330.566,0,0
1587071691,351.562,555.664,126.953,397.949,0,0
1587071691,214.355,264.648,82.52,137.207,0,0
1587071691,105.469,-572.266,48.34,-9.277,0,0
1587071691,220.215,-253.906,96.191,212.402,0,0
1587071691,336.914,665.039,121.094,396.973,0,0
1587071691,240.723,309.082,67.871,152.344,0,0
1587071691,95.703,-750.488,14.16,-52.734,0,0
1587071691,189.941,-711.914,61.035,152.344,0,0
1587071691,352.539,380.859,141.113,404.297,0,0
1587071691,292.969,500,111.328,285.156,0,0
1587071691,139.648,-330.078,69.824,-21.973,0,0
1587071691,159.668,-481.934,96.191,74.707,0,0
1587071691,316.406,61.523,124.512,388.184,0,0
1587071691,339.355,313.477,106.445,334.961,0,0
1587071691,165.039,-212.891,84.961,26.855,0,0
1587071691,115.234,-491.211,108.887,5.371,0,0
1587071691,270.996,12.207,134.277,305.176,0,0
1587071691,351.074,213.379,103.516,399.902,0,0
1587071691,220.703,-599.121,65.918,126.465,0,0
1587071691,99.121,-916.016,107.91,-55.664,0,0
1587071691,223.145,-86.914,155.762,194.824,0,0
1587071691,374.023,340.332,129.395,425.781,0,0
1587071691,283.691,87.402,90.82,211.426,0,0
1587071691,125,-159.18,88.867,-58.105,0,0
1587071691,198.242,-180.664,110.84,125.977,0,0
1587071691,380.371,93.262,149.414,422.852,0,0
1587071691,346.68,273.926,131.348,292.48,0,0
1587071691,160.156,-241.211,73.242,-44.922,0,0
1587071691,154.297,-435.059,95.215,40.039,0,0
1587071691,315.918,-160.645,132.812,383.301,0,0
1587071691,335.938,52.734,135.254,363.281,0,0
1587071691,163.086,-64.453,107.91,48.828,0,0
1587071691,111.328,-406.25,96.191,-21.484,0,0
1587071691,279.785,-527.832,112.793,287.598,0,0
1587071691,372.07,-48.828,139.648,406.738,0,0
1587071691,218.262,337.891,119.629,97.656,0,0
1587071691,67.871,-392.09,67.871,-106.445,0,0
1587071691,179.199,-479.004,113.281,159.668,0,0
1587071691,322.266,376.465,165.527,412.109,0,0
1587071691,234.375,568.848,119.629,187.988,0,0
1587071691,65.43,-274.902,33.203,-99.121,0,0
1587071691,127.441,-774.414,30.273,53.223,0,0
1587071691,306.152,-150.391,101.562,345.703,0,0
1587071691,267.578,133.789,104.492,251.465,0,0
1587071691,82.52,-545.898,48.828,-40.527,0,0
1587071691,76.66,-922.363,69.824,-10.742,0,0
1587071691,235.352,-133.301,150.391,289.551,0,0
1587071691,297.852,639.648,118.164,298.828,0,0
1587071691,131.348,37.598,48.828,-20.02,0,0
1587071691,44.434,-473.633,64.453,-87.891,0,0
1587071691,211.914,103.027,97.168,216.797,0,0
1587071691,311.523,533.691,76.66,358.398,0,0
1587071691,182.617,103.516,11.719,62.988,0,0
1587071691,48.828,-667.48,-6.348,-123.535,0,0
1587071691,137.695,-432.617,62.5,122.559,0,0
1587071691,295.898,592.285,107.91,347.168,0,0
1587071691,251.465,27.832,60.547,189.941,0,0
1587071691,39.062,-867.188,73.73,-126.465,0,0
1587071691,68.359,-129.395,138.184,-9.766,0,0
1587071691,272.461,406.25,139.16,332.031,0,0
1587071691,268.555,479.004,125.488,267.578,0,0
1587071691,77.148,148.926,108.887,-52.734,0,0
1587071691,37.109,-35.156,116.699,-55.664,0,0
1587071691,205.078,244.141,110.84,262.695,0,0
1587071691,258.301,361.328,84.473,329.59,0,0
1587071691,98.633,59.57,70.801,15.137,0,0
1587071691,8.789,-430.176,73.242,-117.188,0,0
1587071691,174.316,-337.891,113.77,196.289,0,0
1587071691,304.688,255.859,134.766,382.324,0,0
1587071691,180.664,517.578,92.285,110.352,0,0
1587071691,4.883,111.328,34.18,-143.555,0,0
1587071691,80.078,-385.254,18.066,61.035,0,0
1587071691,253.906,-374.512,48.828,345.703,0,0
1587071691,193.359,361.328,60.547,170.898,0,0
1587071691,4.395,187.5,-0.977,-135.742,0,0
1587071691,51.758,-347.168,20.508,4.883,0,0
1587071691,237.793,123.047,75.684,317.871,0,0
1587071691,227.051,366.699,36.621,257.324,0,0
1587071691,51.27,-212.402,-29.785,-50.781,0,0
1587071691,23.926,-875.488,-63.477,-45.41,0,0
1587071691,162.109,-490.723,-9.277,264.16,0,0
1587071691,222.168,607.422,22.461,332.031,0,0
1587071691,115.723,355.957,-35.156,42.48,0,0
1587071691,-8.789,-434.57,-59.57,-141.602,0,0
1587071691,83.984,-168.457,-22.949,110.352,0,0
1587071691,232.91,704.102,15.137,326.172,0,0
1587071691,147.461,556.641,-19.531,106.445,0,0
1587071691,-33.203,-204.59,-34.668,-171.387,0,0
1587071691,25.391,-97.656,26.367,6.836,0,0
1587071691,211.426,388.672,61.035,309.57,0,0
1587071691,166.992,250.977,11.719,171.387,0,0
1587071691,-26.855,-705.566,-23.438,-150.879,0,0
1587071691,-50.781,-511.719,57.129,-102.539,0,0
1587071691,141.602,523.926,86.426,196.777,0,0
1587071691,201.172,496.094,41.992,208.984,0,0
1587071691,20.02,-46.387,16.113,-95.703,0,0
1587071691,-62.012,-167.48,36.621,-165.527,0,0
1587071691,111.816,228.027,83.008,153.32,0,0
1587071691,197.754,392.09,76.66,269.043,0,0
1587071691,37.598,170.898,44.922,-37.598,0,0
1587071691,-78.125,-149.414,34.18,-191.406,0,0
1587071691,37.598,-177.734,59.082,81.543,0,0
1587071691,181.152,-248.535,56.152,315.918,0,0
1587071691,92.285,-358.398,34.18,116.699,0,0
1587071691,-86.914,-81.543,25.879,-208.496,0,0
1587071691,-31.25,-166.016,28.32,-63.477,0,0
1587071691,131.348,52.246,68.359,269.043,0,0
1587071691,112.793,469.727,87.402,159.18,0,0
1587071691,-55.664,199.219,80.566,-195.312,0,0
1587071691,-57.617,-315.43,61.523,-134.277,0,0
1587071691,125.488,-46.387,60.547,211.914,0,0
1587071691,152.832,503.906,106.445,220.215,0,0
1587071691,-17.578,229.004,93.75,-99.609,0,0
1587071691,-82.031,-628.906,35.645,-171.387,0,0
1587071691,34.18,-753.418,59.57,104.98,0,0
1587071691,122.559,83.008,106.934,231.934,0,0
1587071691,-1.953,223.145,79.59,-29.297,0,0
1587071691,-135.254,-680.664,55.664,-232.422,0,0
1587071691,0.488,-724.609,97.656,-13.184,0,0
1587071691,148.926,268.066,144.531,190.918,0,0
1587071691,45.898,476.074,107.422,35.156,0,0
1587071691,-125.977,-412.598,84.473,-216.797,0,0
1587071691,-83.008,-546.387,90.82,-83.008,0,0
1587071691,86.914,433.594,-12.695,237.305,0,0
1587071691,102.539,680.664,-207.52,181.152,0,0
1587071691,-63.477,-404.297,-390.137,-113.281,0,0
1587071691,-117.676,-862.793,-458.984,-132.324,0,0
1587071691,25.391,7.324,-500.977,153.32,0,0
1587071691,83.496,450.195,-582.031,203.613,0,0
1587071691,-65.918,-269.043,-632.812,-134.766,0,0
1587071691,-169.434,-810.059,-635.742,-280.762,0,0
1587071691,-33.691,-616.699,-620.605,6.836,0,0
1587071691,91.309,-436.035,-609.863,198.73,0,0
1587071691,-12.695,-651.367,-646.484,-41.992,0,0
1587071691,-177.246,-993.652,-673.34,-302.246,0,0
1587071691,-127.93,-693.359,-639.648,-138.672,0,0
1587071691,35.645,-297.852,-631.348,158.203,0,0
1587071691,-6.348,-622.559,-691.406,37.598,0,0
1587071691,-200.684,-1000,-708.496,-301.27,0,0
1587071691,-177.734,-894.531,-626.953,-214.844,0,0
1587071691,6.348,-678.711,-591.309,73.73,0,0
1587071691,-14.648,-674.805,-630.859,10.254,0,0
1587071691,-237.793,-665.527,-632.324,-318.848,0,0
1587071691,-295.41,-853.027,-604.98,-370.605,0,0
1587071691,-145.508,-811.035,-540.527,-91.309,0,0
1587071691,-81.543,-407.227,-482.422,-30.273,0,0
1587071691,-230.957,-562.988,-472.168,-351.074,0,0
1587071691,-378.418,-1000,-410.645,-507.812,0,0
1587071691,-268.555,-991.699,-299.805,-241.211,0,0
1587071691,-110.352,-672.363,-286.133,-50.781,0,0
1587071691,-212.402,-560.059,-312.988,-270.508,0,0
1587071691,-376.953,-871.582,-306.641,-514.648,0,0
1587071691,-292.48,-1000,-276.367,-319.336,0,0
1587071691,-104.492,-653.809,-221.68,-33.203,0,0
1587071691,-162.109,-163.574,-201.66,-167.48,0,0
1587071691,-360.84,-693.359,-226.074,-476.562,0,0
1587071691,-328.125,-1000,-198.242,-389.16,0,0
1587071691,-136.23,-570.312,-137.207,-54.688,0,0
1587071691,-88.867,-352.051,-135.254,-53.711,0,0
1587071691,-253.906,-792.48,-180.176,-365.234,0,0
1587071691,-282.227,-1000,-187.5,-382.324,0,0
1587071691,-84.961,-985.84,-153.809,-36.621,0,0
1587071691,-16.113,-965.82,-103.516,42.969,0,0
1587071691,-127.93,-969.727,-76.66,-203.613,0,0
1587071691,-238.77,-1000,-163.574,-326.66,0,0
1587071691,-140.625,-666.016,-161.621,-66.406,0,0
1587071691,47.852,55.176,-201.172,169.922,0,0
1587071691,-17.578,-53.223,-458.008,-6.836,0,0
1587071691,-173.34,-626.465,-653.32,-254.395,0,0
1587071691,-98.145,-407.715,-705.078,-65.43,0,0
1587071691,86.914,169.434,-746.582,240.723,0,0
1587071691,73.73,232.91,-768.066,163.574,0,0
1587071691,-110.84,-93.262,-777.344,-143.555,0,0
1587071691,-111.328,-406.738,-746.582,-114.746,0,0
1587071691,69.336,107.91,-691.895,204.102,0,0
1587071691,117.188,265.137,-732.91,240.234,0,0
1587071691,-54.688,-404.785,-748.047,-62.012,0,0
1587071691,-153.32,-106.445,-679.199,-160.156,0,0
1587071691,0,577.637,-597.656,144.531,0,0
1587071691,109.863,930.664,-507.812,307.617,0,0
1587071691,-23.926,806.152,-449.707,23.926,0,0
1587071691,-158.203,438.965,-457.52,-201.66,0,0
1587071691,-33.691,362.305,-429.688,40.039,0,0
1587071691,128.906,706.055,-369.141,288.574,0,0
1587071691,39.062,948.242,-366.699,112.793,0,0
1587071691,-127.93,207.031,-404.785,-177.246,0,0
1587071691,-84.473,-405.762,-349.121,-54.199,0,0
1587071691,57.129,-17.09,-229.98,250,0,0
1587071691,41.016,806.152,-223.145,166.504,0,0
1587071691,-120.605,825.684,-343.75,-159.18,0,0
1587071691,-149.414,106.934,-340.82,-142.578,0,0
1587071691,20.508,263.672,-252.441,160.156,0,0
1587071691,67.871,907.715,-221.191,189.941,0,0
1587071691,-106.934,857.91,-254.395,-122.07,0,0
1587071691,-189.453,235.84,-243.652,-244.141,0,0
1587071691,-60.547,473.633,-142.578,54.199,0,0
1587071691,55.664,986.816,-110.84,226.074,0,0
1587071691,-44.434,701.172,-145.996,-30.762,0,0
1587071691,-183.105,-307.129,-157.715,-256.836,0,0
1587071691,-130.371,-410.156,-67.871,-74.707,0,0
1587071691,7.324,829.59,20.508,165.527,0,0
1587071691,-26.855,989.258,-24.414,41.504,0,0
1587071691,-202.148,416.992,-41.016,-244.141,0,0
1587071691,-187.988,442.383,33.203,-143.066,0,0
1587071691,3.906,966.309,108.398,181.152,0,0
1587071691,26.855,925.781,92.773,172.852,0,0
1587071691,-110.84,204.59,21.973,-149.414,0,0
1587071691,-170.41,23.438,79.59,-212.402,0,0
1587071691,-62.5,708.496,217.773,94.238,0,0
1587071691,30.762,857.422,227.051,212.891,0,0
1587071691,-127.441,-136.719,201.172,-62.5,0,0
1587071691,-258.301,-500,287.598,-259.277,0,0
1587071691,-113.77,376.953,390.137,-13.184,0,0
1587071691,24.902,855.957,410.645,218.262,0,0
1587071691,-93.75,707.031,393.066,-18.066,0,0
1587071691,-274.414,391.602,407.227,-299.805,0,0
1587071691,-187.988,407.715,458.496,-97.168,0,0
1587071691,26.855,684.57,523.438,213.379,0,0
1587071691,-42.969,760.742,527.344,60.547,0,0
1587071691,-251.465,493.164,501.465,-259.766,0,0
1587071691,-228.027,232.422,479.492,-174.805,0,0
1587071691,-57.129,354.492,475.098,141.602,0,0
1587071691,-29.297,552.734,464.355,141.602,0,0
1587071691,-194.824,361.328,432.129,-187.012,0,0
1587071691,-279.297,296.387,433.594,-255.371,0,0
1587071691,-120.117,91.797,437.5,60.059,0,0
1587071691,-32.715,404.785,497.559,144.043,0,0
1587071691,-174.316,933.105,487.793,-143.555,0,0
1587071691,-274.902,333.496,425.781,-302.734,0,0
1587071691,-148.926,341.309,484.863,-47.852,0,0
1587071691,-11.23,931.641,530.273,145.508,0,0
1587071691,-107.422,964.844,465.82,-81.055,0,0
1587071691,-265.625,344.727,419.922,-330.078,0,0
1587071691,-205.566,-62.5,442.871,-182.617,0,0
1587071691,-77.637,452.148,489.258,97.168,0,0
1587071692,-129.395,757.324,469.238,0,0,0
1587071692,-268.066,134.766,413.086,-297.852,0,0
1587071692,-252.93,-442.383,458.496,-238.281,0,0
1587071692,-102.539,455.078,594.238,53.223,0,0
1587071692,-46.875,-874.512,586.914,72.266,0,0
1587071692,-211.426,513.672,489.258,-213.379,0,0
1587071692,-300.781,99.121,492.676,-322.754,0,0
1587071692,-161.621,626.953,558.594,-79.102,0,0
1587071692,-33.691,-970.703,554.199,29.297,0,0
1587071692,-152.832,642.578,470.215,-253.418,0,0
1587071692,-324.707,-94.727,426.27,-476.562,0,0
1587071692,-224.609,61.523,480.469,-266.602,0,0
1587071692,-56.152,845.215,542.969,-39.062,0,0
1587071692,-126.465,750,515.137,-200.684,0,0
1587071692,-306.152,359.375,505.859,-500.977,0,0
1587071692,-274.414,420.898,562.5,-373.535,0,0
1587071692,-98.145,797.852,618.652,-57.617,0,0
1587071692,-87.891,437.988,610.352,-124.512,0,0
1587071692,-277.344,-18.555,629.395,-447.754,0,0
1587071692,-312.012,436.035,698.73,-457.031,0,0
1587071692,-125.488,709.473,759.277,-129.883,0,0
1587071692,-60.547,729.004,775.391,-43.945,0,0
1587071692,-216.309,393.066,776.855,-336.426,0,0
1587071692,-288.574,15.625,799.316,-444.336,0,0
1587071692,-145.996,26.855,810.547,-160.645,0,0
1587071692,-51.758,397.461,814.453,9.277,0,0
1587071692,-182.617,825.684,791.016,-215.82,0,0
1587071692,-334.961,572.754,746.094,-442.871,0,0
1587071692,-232.422,94.238,710.938,-219.238,0,0
1587071692,-71.777,302.734,712.891,41.504,0,0
1587071692,-167.48,937.012,688.965,-129.395,0,0
1587071692,-324.707,303.223,580.566,-423.34,0,0
1587071692,-299.805,-75.684,589.844,-320.801,0,0
1587071692,-140.625,688.477,653.809,3.906,0,0
1587071692,-125.488,974.121,615.723,6.836,0,0
1587071692,-288.086,297.363,550.293,-270.996,0,0
1587071692,-326.172,-287.598,593.262,-323.73,0,0
1587071692,-179.199,349.121,694.336,-38.574,0,0
1587071692,-99.609,-957.52,673.34,55.176,0,0
1587071692,-235.84,787.598,585.449,-215.82,0,0
1587071692,-333.496,-400.391,552.734,-340.82,0,0
1587071692,-228.027,-273.438,643.555,-101.074,0,0
1587071692,-113.77,-983.398,677.734,63.965,0,0
1587071692,-204.59,749.023,579.59,-140.137,0,0
1587071692,-350.586,64.941,540.527,-380.859,0,0
1587071692,-285.645,156.25,572.754,-186.523,0,0
1587071692,-146.973,571.777,594.727,101.074,0,0
1587071692,-164.551,562.988,559.57,-9.277,0,0
1587071692,-320.801,-500.977,506.348,-298.34,0,0
1587071692,-350.098,-461.426,600.586,-253.418,0,0
1587071692,-175.293,769.531,664.551,66.406,0,0
1587071692,-114.258,841.309,581.055,74.219,0,0
1587071692,-285.645,403.809,521.973,-213.379,0,0
1587071692,-373.535,232.91,525.879,-248.535,0,0
1587071692,-191.406,483.398,545.898,56.641,0,0
1587071692,-59.57,664.551,552.246,180.176,0,0
1587071692,-232.422,525.391,541.992,-80.566,0,0
1587071692,-383.789,234.375,537.109,-246.582,0,0
1587071692,-240.234,169.434,587.402,11.23,0,0
1587071692,-76.172,80.078,614.746,233.398,0,0
1587071692,-175.781,-87.891,598.145,22.949,0,0
1587071692,-371.582,-34.18,562.012,-270.996,0,0
1587071692,-325.195,83.496,566.895,-92.285,0,0
1587071692,-157.227,564.453,640.625,218.75,0,0
1587071692,-177.246,841.797,626.465,104.004,0,0
1587071692,-349.121,505.859,560.059,-206.055,0,0
1587071692,-349.121,110.352,577.148,-153.32,0,0
1587071692,-177.246,386.23,671.387,175.781,0,0
1587071692,-121.582,825.684,710.449,182.617,0,0
1587071692,-308.594,554.199,614.258,-135.742,0,0
1587071692,-393.555,-219.727,546.875,-178.223,0,0
1587071692,-223.145,-557.617,602.539,125,0,0
1587071692,-133.301,159.18,674.805,237.305,0,0
1587071692,-252.441,656.25,644.043,-17.09,0,0
1587071692,-354.492,6.348,565.43,-192.383,0,0
1587071692,-266.602,-290.039,576.172,23.926,0,0
1587071692,-149.414,414.062,639.16,229.004,0,0
1587071692,-205.078,780.762,605.469,53.223,0,0
1587071692,-391.113,83.008,520.508,-202.148,0,0
1587071692,-372.559,-151.367,548.828,-89.355,0,0
1587071692,-181.641,613.281,612.793,193.359,0,0
1587071692,-176.758,989.258,549.316,122.07,0,0
1587071692,-327.148,-3.906,437.988,-186.523,0,0
1587071692,-340.332,-604.98,468.75,-170.41,0,0
1587071692,-200.195,437.5,556.641,140.137,0,0
1587071692,-147.461,938.477,534.668,192.871,0,0
1587071692,-283.203,56.641,473.145,-91.309,0,0
1587071692,-380.371,-344.727,522.949,-202.637,0,0
1587071692,-244.141,379.883,611.328,61.523,0,0
1587071692,-112.305,717.285,634.277,232.91,0,0
1587071692,-211.426,353.516,595.215,10.254,0,0
1587071692,-362.305,-292.969,565.43,-192.871,0,0
1587071692,-308.105,59.57,638.184,15.625,0,0
1587071692,-134.766,689.453,655.273,273.438,0,0
1587071692,-171.875,267.578,583.496,124.023,0,0
1587071692,-367.188,-340.82,564.941,-192.383,0,0
1587071692,-352.539,-346.191,581.055,-119.629,0,0
1587071692,-162.109,-1.465,585.449,188.965,0,0
1587071692,-134.766,71.289,568.359,180.664,0,0
1587071692,-310.547,92.285,535.645,-136.23,0,0
1587071692,-378.418,14.648,528.809,-154.297,0,0
1587071692,-206.543,110.84,577.148,149.414,0,0
1587071692,-122.07,527.832,572.754,239.746,0,0
1587071692,-269.043,583.984,465.82,-48.828,0,0
1587071692,-378.418,46.387,397.461,-207.031,0,0
1587071692,-251.465,-134.277,449.707,64.941,0,0
1587071692,-85.938,195.801,497.07,276.855,0,0
1587071692,-187.012,269.531,475.098,44.922,0,0
1587071692,-359.863,-257.324,443.848,-214.355,0,0
1587071692,-280.762,-397.949,506.836,-28.809,0,0
1587071692,-124.512,380.371,550.781,229.98,0,0
1587071692,-171.875,882.324,466.797,86.914,0,0
1587071692,-325.195,310.547,382.324,-222.656,0,0
1587071692,-308.105,-738.77,404.785,-100.098,0,0
1587071692,-137.207,-382.324,535.645,205.078,0,0
1587071692,-120.605,796.387,562.988,134.766,0,0
1587071692,-265.625,348.145,473.633,-160.645,0,0
1587071692,-297.852,-290.527,478.516,-174.805,0,0
1587071692,-148.926,13.672,529.297,138.672,0,0
1587071692,-68.848,484.375,525.879,212.402,0,0
1587071692,-229.98,178.223,460.938,-95.215,0,0
1587071692,-355.469,-878.418,427.246,-232.91,0,0
1587071692,-249.023,-411.133,539.551,3.418,0,0
1587071692,-108.887,922.852,567.871,221.191,0,0
1587071692,-163.086,638.184,455.078,71.289,0,0
1587071692,-331.543,-94.727,399.902,-209.473,0,0
1587071692,-297.363,214.844,464.844,-97.656,0,0
1587071692,-104.004,867.188,509.277,193.359,0,0
1587071692,-108.398,720.703,469.238,79.102,0,0
1587071692,-290.039,88.867,407.227,-222.168,0,0
1587071692,-318.359,-152.344,375.977,-172.852,0,0
1587071692,-176.758,279.785,392.578,112.305,0,0
1587071692,-121.094,589.355,376.465,125.488,0,0
1587071692,-300.293,385.742,348.633,-216.309,0,0
1587071692,-375,259.277,378.906,-254.395,0,0
1587071692,-192.871,517.578,423.828,80.566,0,0
1587071692,-101.562,519.043,407.715,193.359,0,0
1587071692,-231.445,387.695,345.703,-62.012,0,0
1587071692,-360.352,223.145,319.336,-246.582,0,0
1587071692,-250,204.102,390.625,-20.508,0,0
1587071692,-90.332,321.289,463.379,230.957,0,0
1587071692,-180.664,510.254,455.078,48.34,0,0
1587071692,-352.539,114.258,348.633,-242.676,0,0
1587071692,-293.457,-327.637,341.309,-87.891,0,0
1587071692,-109.375,-166.992,413.086,189.453,0,0
1587071692,-137.207,491.211,413.574,67.871,0,0
1587071692,-300.781,730.957,349.121,-236.816,0,0
1587071692,-303.711,84.473,334.473,-176.27,0,0
1587071692,-168.945,200.684,408.691,140.137,0,0
1587071692,-118.164,935.059,449.707,156.738,0,0
1587071692,-239.258,541.016,342.773,-124.023,0,0
1587071692,-336.914,-361.816,261.719,-218.262,0,0
1587071692,-222.168,93.75,308.594,27.832,0,0
1587071692,-105.469,974.121,308.105,170.41,0,0
1587071692,-211.426,531.25,240.234,-56.641,0,0
1587071692,-333.496,-476.562,250,-243.164,0,0
1587071692,-244.141,-172.852,352.539,-59.082,0,0
1587071692,-72.754,850.586,400.879,191.406,0,0
1587071692,-108.398,922.363,342.285,73.73,0,0
1587071692,-273.926,-288.574,247.559,-201.172,0,0
1587071692,-259.277,-526.367,313.477,-101.074,0,0
1587071692,-68.359,749.023,418.945,191.895,0,0
1587071692,-52.246,879.883,355.957,152.344,0,0
1587071692,-260.254,212.402,290.527,-158.203,0,0
1587071692,-316.406,34.18,308.105,-190.918,0,0
1587071692,-124.023,409.18,341.309,117.676,0,0
1587071692,-65.918,564.941,324.219,177.246,0,0
1587071692,-233.398,149.902,279.297,-133.789,0,0
1587071692,-312.988,-335.449,299.316,-272.949,0,0
1587071692,-183.105,132.812,382.812,-7.812,0,0
1587071692,-27.832,569.824,350.098,219.727,0,0
1587071692,-105.469,-31.25,253.906,44.922,0,0
1587071692,-295.898,-95.215,272.461,-231.445,0,0
1587071692,-239.258,267.09,302.246,-76.66,0,0
1587071692,-70.801,420.41,328.613,217.773,0,0
1587071692,-124.512,487.793,351.562,64.453,0,0
1587071692,-295.898,334.961,336.426,-247.07,0,0
1587071692,-311.035,160.645,360.84,-163.086,0,0
1587071692,-150.879,-20.996,413.086,138.672,0,0
1587071692,-141.113,145.508,432.129,109.375,0,0
1587071692,-315.918,241.211,384.277,-229.98,0,0
1587071692,-347.656,-329.102,366.211,-259.766,0,0
1587071692,-184.082,-193.359,455.078,73.73,0,0
1587071692,-82.031,488.281,478.516,163.574,0,0
1587071692,-215.82,647.461,393.066,-122.07,0,0
1587071692,-348.145,17.578,331.055,-287.109,0,0
1587071692,-228.027,-55.664,396.484,-21.973,0,0
1587071692,-70.312,669.434,439.941,195.312,0,0
1587071692,-167.48,958.008,386.23,-48.828,0,0
1587071692,-327.637,203.613,327.637,-291.504,0,0
1587071692,-255.371,-341.797,350.098,-128.906,0,0
1587071692,-91.309,282.227,401.367,144.531,0,0
1587071692,-99.121,570.801,356.934,81.543,0,0
1587071692,-261.719,-79.59,288.086,-237.793,0,0
1587071692,-256.836,-541.016,320.801,-171.875,0,0
1587071692,-90.332,149.414,405.762,169.434,0,0
1587071692,-37.109,749.023,384.277,145.508,0,0
1587071692,-205.078,315.918,306.641,-182.617,0,0
1587071692,-297.852,-180.664,297.852,-252.441,0,0
1587071692,-142.578,342.773,384.766,24.902,0,0
1587071692,-36.133,961.914,409.18,132.324,0,0
1587071692,-165.039,504.395,315.918,-130.859,0,0
1587071692,-287.109,-363.281,282.715,-329.102,0,0
1587071692,-171.387,-35.156,377.93,-98.145,0,0
1587071692,5.371,909.18,433.105,187.988,0,0
1587071692,-43.457,263.672,340.332,29.785,0,0
1587071692,-244.629,-603.516,306.641,-270.508,0,0
1587071692,-223.145,88.867,383.789,-153.32,0,0
1587071692,-34.668,642.578,385.254,154.785,0,0
1587071692,-51.758,679.688,333.008,86.914,0,0
1587071692,-236.328,78.125,278.32,-233.887,0,0
1587071692,-240.723,-115.723,318.359,-187.012,0,0
1587071692,-73.73,435.059,367.676,139.648,0,0
1587071692,-39.062,599.609,327.148,128.418,0,0
1587071692,-180.176,41.016,278.809,-185.547,0,0
1587071692,-273.438,-584.961,307.617,-319.336,0,0
1587071692,-122.559,-364.746,358.887,-28.809,0,0
1587071692,44.922,-131.348,366.699,209.961,0,0
1587071692,-91.309,240.723,370.117,-43.945,0,0
1587071692,-285.156,192.871,305.176,-292.969,0,0
1587071692,-181.152,-49.805,311.035,-63.477,0,0
1587071692,-1.953,494.629,374.023,219.727,0,0
1587071692,-61.523,912.109,373.535,84.473,0,0
1587071692,-240.234,407.227,333.496,-206.543,0,0
1587071692,-178.711,-100.098,360.352,-92.773,0,0
1587071692,0.488,316.895,397.949,192.383,0,0
1587071692,-29.785,551.758,327.148,130.371,0,0
1587071692,-194.824,126.465,269.531,-187.988,0,0
1587071692,-208.984,-653.809,248.535,-199.219,0,0
1587071692,-57.617,-464.355,311.035,113.77,0,0
1587071692,-3.418,863.77,357.91,162.109,0,0
1587071692,-135.254,743.652,275.391,-112.793,0,0
1587071692,-236.328,-20.508,260.254,-227.539,0,0
1587071692,-120.117,235.352,310.059,38.086,0,0
1587071692,20.996,827.637,289.551,230.469,0,0
1587071692,-68.848,606.445,229.004,21.484,0,0
1587071692,-231.445,31.738,222.656,-250.488,0,0
1587071692,-142.09,21.973,280.273,-74.219,0,0
1587071692,41.504,450.195,322.266,228.516,0,0
1587071692,15.137,433.105,284.668,116.699,0,0
1587071692,-169.434,-620.117,212.891,-199.707,0,0
1587071692,-190.43,-561.035,267.09,-134.766,0,0
1587071692,-27.344,578.125,321.289,180.176,0,0
1587071692,-1.953,695.801,267.09,149.414,0,0
1587071692,-164.551,175.293,199.219,-168.945,0,0
1587071692,-221.68,42.969,206.055,-228.027,0,0
1587071692,-72.754,561.035,272.461,66.895,0,0
1587071692,12.695,757.324,246.094,178.711,0,0
1587071692,-124.023,485.352,199.219,-91.797,0,0
1587071692,-229.492,130.859,182.617,-241.211,0,0
1587071692,-106.934,120.605,207.031,20.996,0,0
1587071692,58.594,31.738,218.75,251.465,0,0
1587071692,-39.551,-120.605,215.82,56.641,0,0
1587071692,-218.75,140.137,207.52,-236.328,0,0
1587071692,-118.164,167.969,176.758,-59.082,0,0
1587071692,69.336,61.523,195.801,254.883,0,0
1587071693,12.207,217.285,219.238,117.188,0,0
1587071693,-180.176,402.344,188.965,-214.355,0,0
1587071693,-174.805,118.164,178.711,-168.945,0,0
1587071693,8.301,157.227,246.094,176.758,0,0
1587071693,40.039,677.734,284.668,196.777,0,0
1587071693,-113.281,537.598,226.562,-130.859,0,0
1587071693,-176.27,-268.066,191.406,-206.543,0,0
1587071693,-51.758,-626.465,242.676,87.891,0,0
1587071693,31.25,29.297,286.133,223.145,0,0
1587071693,-110.352,603.027,233.887,-84.473,0,0
1587071693,-223.145,-64.453,157.227,-287.598,0,0
1587071693,-110.84,-230.957,220.703,-32.715,0,0
1587071693,27.832,745.117,312.988,191.895,0,0
1587071693,-28.809,847.168,253.418,17.09,0,0
1587071693,-185.059,-138.184,183.105,-240.234,0,0
1587071693,-136.719,-239.258,245.117,-89.844,0,0
1587071693,39.062,662.598,327.637,193.359,0,0
1587071693,25.879,958.496,282.227,90.82,0,0
1587071693,-115.723,-28.809,205.566,-205.078,0,0
1587071693,-131.836,-568.359,272.461,-186.035,0,0
1587071693,17.578,390.625,363.281,125.977,0,0
1587071693,104.492,-993.164,321.289,176.27,0,0
1587071693,-33.691,85.938,238.77,-115.234,0,0
1587071693,-151.855,-651.367,283.691,-227.051,0,0
1587071693,-28.32,211.914,406.25,60.059,0,0
1587071693,115.234,910.156,420.898,260.742,0,0
1587071693,9.766,232.91,341.797,48.828,0,0
1587071693,-156.738,-315.918,320.801,-187.988,0,0
1587071693,-67.871,137.695,346.68,8.789,0,0
1587071693,102.051,527.344,352.539,289.062,0,0
1587071693,36.133,340.82,297.363,116.699,0,0
1587071693,-146.484,-300.293,253.418,-186.523,0,0
1587071693,-82.52,-421.875,296.875,-92.773,0,0
1587071693,110.352,-1.465,340.82,233.887,0,0
1587071693,86.426,-59.57,309.57,197.754,0,0
1587071693,-89.844,-46.875,268.555,-148.438,0,0
1587071693,-98.633,137.207,261.23,-130.371,0,0
1587071693,78.125,261.719,312.988,223.145,0,0
1587071693,135.254,720.215,338.867,278.32,0,0
1587071693,-12.695,722.656,259.766,-20.996,0,0
1587071693,-123.535,177.246,209.961,-150.391,0,0
1587071693,-2.441,73.242,247.07,102.539,0,0
1587071693,137.207,416.992,275.391,274.902,0,0
1587071693,26.367,463.867,242.188,42.48,0,0
1587071693,-136.23,27.832,189.941,-196.289,0,0
1587071693,-53.223,-511.719,189.453,23.438,0,0
1587071693,82.031,-145.508,259.277,287.598,0,0
1587071693,20.02,862.793,277.344,99.121,0,0
1587071693,-112.793,324.219,203.613,-199.707,0,0
1587071693,-60.547,-343.262,270.02,-97.656,0,0
1587071693,104.492,389.648,380.859,217.773,0,0
1587071693,129.883,-950.195,350.098,214.355,0,0
1587071693,-26.855,506.836,267.578,-90.332,0,0
1587071693,-89.355,-152.344,258.789,-129.395,0,0
1587071693,66.895,155.273,328.613,176.758,0,0
1587071693,165.039,609.375,323.242,281.738,0,0
1587071693,14.648,113.281,217.285,8.301,0,0
1587071693,-139.16,-749.023,210.938,-153.32,0,0
1587071693,-28.809,-228.516,312.5,84.473,0,0
1587071693,157.715,568.359,307.617,340.82,0,0
1587071693,116.211,248.535,165.039,178.223,0,0
1587071693,-76.172,-108.398,13.184,-162.109,0,0
1587071693,-79.102,283.691,15.137,-96.191,0,0
1587071693,74.219,837.891,57.129,177.246,0,0
1587071693,41.992,705.078,31.738,87.891,0,0
1587071693,-158.203,190.43,-2.441,-212.891,0,0
1587071693,-143.555,-143.555,35.645,-151.367,0,0
1587071693,36.621,316.406,117.676,156.25,0,0
1587071693,55.664,312.5,70.801,157.227,0,0
1587071693,-109.375,-329.102,33.691,-149.414,0,0
1587071693,-184.082,111.328,107.422,-223.145,0,0
1587071693,-28.809,533.691,141.602,64.941,0,0
1587071693,118.652,770.02,177.734,189.453,0,0
1587071693,-15.137,665.527,142.578,-51.758,0,0
1587071693,-176.758,14.16,88.867,-196.777,0,0
1587071693,-41.504,-5.371,159.668,59.57,0,0
1587071693,135.254,614.746,208.496,283.203,0,0
1587071693,68.848,753.418,179.688,107.422,0,0
1587071693,-93.75,98.145,140.137,-164.062,0,0
1587071693,-51.27,-237.793,130.859,-62.012,0,0
1587071693,111.816,-200.684,161.133,224.121,0,0
1587071693,79.59,465.82,188.477,131.836,0,0
1587071693,-96.191,645.508,110.352,-189.453,0,0
1587071693,-90.332,-57.129,89.355,-135.742,0,0
1587071693,101.562,307.129,171.387,188.965,0,0
1587071693,159.668,-983.398,187.5,225.586,0,0
1587071693,4.395,681.641,103.027,-69.336,0,0
1587071693,-75.195,-56.641,74.219,-172.363,0,0
1587071693,41.504,150.879,155.273,120.117,0,0
1587071693,168.457,719.238,211.426,281.25,0,0
1587071693,77.637,364.258,188.965,62.012,0,0
1587071693,-84.961,-491.211,182.617,-154.785,0,0
1587071693,-9.277,-248.047,245.605,27.344,0,0
1587071693,152.832,717.773,257.324,300.293,0,0
1587071693,92.773,809.082,190.43,178.711,0,0
1587071693,-74.219,-379.395,94.727,-79.102,0,0
1587071693,-27.344,-510.254,140.137,22.949,0,0
1587071693,182.617,781.25,213.379,291.016,0,0
1587071693,166.992,834.473,129.395,239.258,0,0
1587071693,-38.086,184.082,60.547,-69.824,0,0
1587071693,-68.359,59.082,97.656,-81.055,0,0
1587071693,93.262,490.234,143.066,232.91,0,0
1587071693,170.41,581.543,99.609,315.918,0,0
1587071693,31.25,-318.359,58.594,12.207,0,0
1587071693,-79.102,-759.766,132.324,-150.391,0,0
1587071693,39.551,-20.508,216.309,136.23,0,0
1587071693,194.824,496.094,207.52,342.285,0,0
1587071693,115.723,449.219,162.598,117.188,0,0
1587071693,-55.664,210.938,158.691,-144.043,0,0
1587071693,1.953,198.242,156.738,19.531,0,0
1587071693,173.34,536.621,156.25,290.527,0,0
1587071693,148.438,581.543,125.977,170.41,0,0
1587071693,-33.203,266.602,77.637,-124.023,0,0
1587071693,-27.344,92.285,107.91,-11.719,0,0
1587071693,173.34,126.465,171.387,303.223,0,0
1587071693,171.387,344.238,180.176,241.211,0,0
1587071693,-36.133,400.391,122.559,-100.098,0,0
1587071693,-87.891,30.273,106.934,-127.441,0,0
1587071693,72.266,-27.344,176.758,204.59,0,0
1587071693,143.066,350.586,179.688,283.203,0,0
1587071693,0.488,500.488,107.91,-23.926,0,0
1587071693,-110.84,65.43,47.363,-181.641,0,0
1587071693,31.738,-297.852,81.543,60.547,0,0
1587071693,174.316,368.164,156.25,247.559,0,0
1587071693,65.43,953.125,85.938,38.086,0,0
1587071693,-83.008,157.715,-23.438,-202.148,0,0
1587071693,13.672,-294.922,29.297,-23.438,0,0
1587071693,174.316,342.285,103.027,257.812,0,0
1587071693,107.91,803.223,73.73,139.16,0,0
1587071693,-73.73,311.035,-10.742,-180.664,0,0
1587071693,-57.129,-648.438,-24.414,-116.211,0,0
1587071693,103.516,130.859,108.398,176.27,0,0
1587071693,154.297,-870.117,116.211,158.691,0,0
1587071693,-3.418,306.641,19.043,-138.672,0,0
1587071693,-116.211,-319.824,33.691,-210.449,0,0
1587071693,37.109,467.773,120.117,73.73,0,0
1587071693,162.109,-942.871,122.07,234.863,0,0
1587071693,20.996,532.227,59.082,15.137,0,0
1587071693,-90.332,-274.902,60.059,-151.367,0,0
1587071693,41.504,88.379,172.363,81.543,0,0
1587071693,186.035,-973.633,205.566,324.707,0,0
1587071693,129.395,303.711,92.285,176.27,0,0
1587071693,-62.988,-428.223,79.102,-104.004,0,0
1587071693,-25.879,150.391,147.461,1.953,0,0
1587071693,171.875,671.875,147.461,297.363,0,0
1587071693,155.273,697.754,106.445,224.121,0,0
1587071693,-20.996,258.789,66.895,-99.609,0,0
1587071693,-54.199,200.195,63.477,-110.352,0,0
1587071693,104.004,407.715,69.336,223.145,0,0
1587071693,170.41,422.852,57.617,282.715,0,0
1587071693,0,177.246,26.367,-55.176,0,0
1587071693,-113.281,-145.508,18.555,-182.129,0,0
1587071693,33.691,-6.836,62.988,117.188,0,0
1587071693,170.898,187.012,79.102,284.668,0,0
1587071693,36.133,437.012,67.383,31.25,0,0
1587071693,-107.422,404.297,23.926,-187.988,0,0
1587071693,12.695,67.383,23.438,31.738,0,0
1587071693,172.852,471.68,69.336,283.203,0,0
1587071693,79.102,870.117,57.617,108.398,0,0
1587071693,-87.891,316.895,-4.883,-157.715,0,0
1587071693,-25.879,-87.891,35.645,-30.273,0,0
1587071693,147.461,377.93,106.934,275.391,0,0
1587071693,147.461,600.586,69.336,245.605,0,0
1587071693,-23.926,-12.695,15.625,-78.613,0,0
1587071693,-86.426,-417.48,42.48,-124.023,0,0
1587071693,55.664,267.578,112.305,171.875,0,0
1587071693,149.414,-990.723,109.863,253.906,0,0
1587071693,22.949,650.879,34.668,-9.766,0,0
1587071693,-97.168,-168.457,26.855,-146.484,0,0
1587071693,54.688,46.875,113.77,121.582,0,0
1587071693,195.312,858.887,143.555,311.523,0,0
1587071693,69.824,688.477,68.848,78.125,0,0
1587071693,-78.125,-551.27,-16.113,-173.34,0,0
1587071693,-22.949,-645.996,60.059,-14.16,0,0
1587071693,126.953,354.98,137.695,252.93,0,0
1587071693,88.867,357.422,56.641,112.793,0,0
1587071693,-87.891,-572.266,7.812,-203.125,0,0
1587071693,-84.473,-458.496,86.426,-112.305,0,0
1587071693,104.004,452.637,116.211,191.406,0,0
1587071693,125.488,370.117,64.453,165.527,0,0
1587071693,-40.039,-26.367,37.598,-108.398,0,0
1587071693,-60.547,-13.672,62.5,-131.836,0,0
1587071693,94.727,297.852,84.473,164.551,0,0
1587071693,123.535,380.859,75.195,220.703,0,0
1587071693,-65.918,225.098,35.645,-122.559,0,0
1587071693,-187.988,-37.109,-8.789,-284.18,0,0
1587071693,-29.785,-149.414,22.461,-11.719,0,0
1587071693,125.977,311.035,72.266,180.176,0,0
1587071693,31.25,520.508,45.898,-29.785,0,0
1587071693,-123.535,172.852,31.25,-263.672,0,0
1587071693,-59.57,78.613,58.594,-93.262,0,0
1587071693,103.027,352.051,91.309,166.504,0,0
1587071693,86.426,641.113,76.66,65.918,0,0
1587071693,-110.84,151.855,1.465,-204.102,0,0
1587071693,-127.441,-302.734,13.672,-138.672,0,0
1587071693,72.754,-341.797,40.039,154.785,0,0
1587071693,86.914,51.758,58.105,128.418,0,0
1587071693,-91.309,216.309,38.086,-172.363,0,0
1587071693,-132.324,-438.965,3.418,-213.379,0,0
1587071693,18.066,-670.898,44.434,102.539,0,0
1587071693,78.613,73.73,86.914,180.176,0,0
1587071693,-70.801,674.316,17.578,-115.723,0,0
1587071693,-189.941,-19.043,-51.758,-265.137,0,0
1587071693,-61.035,-57.129,24.902,-42.969,0,0
1587071693,82.52,781.25,80.078,152.832,0,0
1587071693,0,878.906,0.488,-35.645,0,0
1587071693,-162.109,-62.012,-69.824,-274.902,0,0
1587071693,-101.562,-268.555,6.348,-130.859,0,0
1587071693,74.219,498.047,42.969,142.09,0,0
1587071693,46.875,568.359,-19.043,68.359,0,0
1587071693,-126.953,-333.984,-76.66,-222.168,0,0
1587071693,-157.227,-579.59,-37.109,-205.078,0,0
1587071693,6.836,364.258,30.762,118.652,0,0
1587071693,62.5,792.48,0.488,178.223,0,0
1587071693,-97.168,-166.016,-82.52,-118.652,0,0
1587071693,-189.941,-828.125,-61.523,-233.398,0,0
1587071693,-54.199,98.145,30.273,13.672,0,0
1587071693,76.172,632.324,18.555,192.383,0,0
1587071693,-49.805,335.938,-49.316,-56.152,0,0
1587071693,-184.57,-73.73,-60.059,-283.691,0,0
1587071693,-77.637,131.348,12.207,-70.801,0,0
1587071693,79.102,536.133,43.457,199.707,0,0
1587071693,26.855,221.68,-11.719,53.223,0,0
1587071693,-166.504,-374.512,-59.082,-268.066,0,0
1587071693,-152.832,-411.133,-16.602,-161.133,0,0
1587071693,12.695,26.855,16.602,149.902,0,0
1587071693,8.301,168.945,-9.277,83.984,0,0
1587071693,-182.129,135.254,-28.32,-249.512,0,0
1587071693,-213.379,37.109,-22.949,-250.977,0,0
1587071693,-27.344,127.441,44.434,67.383,0,0
1587071693,37.598,547.852,56.152,102.051,0,0
1587071693,-109.375,519.043,0,-192.383,0,0
1587071693,-204.59,-21.484,-13.672,-283.691,0,0
1587071693,-88.867,-104.98,-1.465,-34.18,0,0
1587071693,19.043,230.957,-10.742,117.188,0,0
1587071693,-79.59,360.84,-48.828,-102.051,0,0
1587071693,-235.352,78.125,-81.543,-342.285,0,0
1587071693,-143.066,-536.133,-57.617,-125.977,0,0
1587071693,21.484,-395.996,-0.488,162.598,0,0
1587071693,-40.039,453.125,-32.227,-20.508,0,0
1587071693,-212.891,76.172,-139.648,-332.031,0,0
1587071693,-219.727,-342.285,-131.836,-247.559,0,0
1587071693,-53.223,261.719,-61.523,65.43,0,0
1587071693,-24.902,734.863,-74.707,44.434,0,0
1587071693,-181.641,176.27,-130.371,-279.785,0,0
1587071693,-239.746,-484.375,-128.906,-288.574,0,0
1587071693,-85.449,-244.629,-61.523,34.668,0,0
1587071693,3.906,247.559,-34.668,128.418,0,0
1587071693,-146.484,-40.039,-99.121,-146.973,0,0
1587071693,-267.578,-803.711,-117.188,-299.316,0,0
1587071693,-147.461,-171.387,-4.395,-79.102,0,0
1587071693,3.418,704.102,-5.371,107.91,0,0
1587071693,-79.102,291.992,-83.496,-82.031,0,0
1587071693,-233.398,-386.23,-114.746,-325.684,0,0
1587071693,-177.246,-59.082,-40.039,-157.227,0,0
1587071693,-37.109,776.855,12.695,100.586,0,0
1587071694,-88.379,704.59,-28.809,-20.02,0,0
1587071694,-267.578,53.711,-63.965,-305.664,0,0
1587071694,-246.094,-290.527,-50.781,-231.934,0,0
1587071694,-77.637,232.422,-9.277,53.711,0,0
1587071694,-51.758,296.875,-71.289,48.828,0,0
1587071694,-229.004,-74.219,-107.422,-256.836,0,0
1587071694,-292.969,37.109,-70.801,-308.105,0,0
1587071694,-110.352,341.797,-22.949,-6.348,0,0
1587071694,-5.859,520.996,-2.441,96.68,0,0
1587071694,-148.926,396.484,-23.438,-187.988,0,0
1587071694,-270.02,124.023,-66.406,-349.121,0,0
1587071694,-151.855,85.449,-41.016,-116.211,0,0
1587071694,8.789,60.059,-7.812,117.676,0,0
1587071694,-83.496,199.707,-18.066,-70.312,0,0
1587071694,-287.598,-38.086,-62.988,-364.746,0,0
1587071694,-240.234,-613.77,-66.406,-208.496,0,0
1587071694,-73.73,-247.07,8.301,67.871,0,0
1587071694,-118.652,548.34,30.762,-56.641,0,0
1587071694,-296.875,512.207,-34.18,-381.348,0,0
1587071694,-297.852,-174.805,-55.664,-331.543,0,0
1587071694,-140.137,-333.984,8.789,-12.695,0,0
1587071694,-100.586,517.578,59.082,-9.277,0,0
1587071694,-241.211,584.961,-26.367,-305.176,0,0
1587071694,-323.242,-163.574,-48.34,-360.84,0,0
1587071694,-174.316,26.855,43.457,-72.266,0,0
1587071694,-47.852,828.125,63.477,81.055,0,0
1587071694,-141.113,454.59,-25.879,-125,0,0
1587071694,-283.691,-600.098,-66.406,-327.637,0,0
1587071694,-218.75,-332.031,14.16,-161.133,0,0
1587071694,-56.641,763.184,72.266,41.992,0,0
1587071694,-150.391,904.297,19.531,-120.117,0,0
1587071694,-362.305,-339.844,-103.027,-409.668,0,0
1587071694,-333.496,-686.523,-62.5,-325.684,0,0
1587071694,-170.41,574.219,72.266,-25.879,0,0
1587071694,-145.996,799.316,31.738,-35.645,0,0
1587071694,-290.039,83.496,-25.391,-327.637,0,0
1587071694,-315.43,-114.258,14.16,-311.035,0,0
1587071694,-133.789,408.203,65.918,4.883,0,0
1587071694,-71.777,659.18,28.809,39.551,0,0
1587071694,-235.84,-322.754,-33.691,-253.418,0,0
1587071694,-351.074,-854.004,-3.906,-388.672,0,0
1587071694,-233.398,20.02,56.152,-156.738,0,0
1587071694,-113.281,469.238,41.992,20.996,0,0
1587071694,-235.352,265.625,-20.996,-208.984,0,0
1587071694,-385.254,90.332,-51.27,-473.633,0,0
1587071694,-290.039,202.148,-17.578,-267.578,0,0
1587071694,-110.84,539.551,40.527,41.992,0,0
1587071694,-147.461,703.125,40.039,-97.168,0,0
1587071694,-321.777,379.883,-14.16,-385.742,0,0
1587071694,-296.875,-151.367,-20.508,-265.137,0,0
1587071694,-119.141,-49.805,38.086,54.199,0,0
1587071694,-121.582,331.055,51.758,-9.766,0,0
1587071694,-307.617,409.18,31.738,-382.812,0,0
1587071694,-327.148,93.262,22.949,-401.855,0,0
1587071694,-172.363,-39.062,53.711,-104.004,0,0
1587071694,-107.91,497.559,80.078,-29.785,0,0
1587071694,-238.77,534.18,33.691,-266.602,0,0
1587071694,-351.562,-151.367,10.742,-417.969,0,0
1587071694,-231.934,-729.98,34.668,-156.25,0,0
1587071694,-119.629,-179.688,99.609,42.48,0,0
1587071694,-209.961,644.531,88.379,-181.152,0,0
1587071694,-359.375,-0.488,-1.465,-438.477,0,0
1587071694,-306.152,-435.547,5.371,-283.691,0,0
1587071694,-140.137,143.555,59.082,9.277,0,0
1587071694,-161.133,389.16,78.613,-74.219,0,0
1587071694,-337.402,-254.883,60.059,-387.207,0,0
1587071694,-324.707,-844.238,96.191,-321.777,0,0
1587071694,-163.574,64.941,216.309,-15.137,0,0
1587071694,-134.766,997.07,174.316,-28.32,0,0
1587071694,-295.898,325.195,56.152,-337.402,0,0
1587071694,-380.371,-258.301,73.73,-395.02,0,0
1587071694,-223.145,254.883,148.438,-90.332,0,0
1587071694,-119.141,583.496,140.625,14.16,0,0
1587071694,-256.348,45.41,85.938,-244.629,0,0
1587071694,-396.973,-586.426,77.637,-426.758,0,0
1587071694,-291.992,-259.766,156.25,-204.59,0,0
1587071694,-147.949,701.66,208.008,7.812,0,0
1587071694,-214.355,76.172,124.512,-155.762,0,0
1587071694,-378.418,-784.668,126.953,-410.645,0,0
1587071694,-340.82,-72.266,203.613,-281.738,0,0
1587071694,-160.156,548.828,209.961,1.953,0,0
1587071694,-174.805,587.891,179.688,-87.891,0,0
1587071694,-375,89.844,133.789,-388.672,0,0
1587071694,-386.719,-20.996,160.645,-362.305,0,0
1587071694,-200.684,398.926,208.496,-24.902,0,0
1587071694,-177.734,575.195,166.504,1.465,0,0
1587071694,-358.398,86.914,102.539,-343.262,0,0
1587071694,-459.473,-484.375,114.746,-452.637,0,0
1587071694,-308.105,-320.312,143.555,-158.203,0,0
1587071694,-192.383,-235.352,156.25,-6.836,0,0
1587071694,-324.219,47.852,165.527,-263.672,0,0
1587071694,-437.012,-41.992,117.188,-472.168,0,0
1587071694,-319.824,-204.59,174.805,-250.977,0,0
1587071694,-179.688,414.551,251.465,20.996,0,0
1587071694,-248.047,792.969,224.609,-132.324,0,0
1587071694,-394.531,271.484,183.594,-410.156,0,0
1587071694,-354.492,-273.926,205.078,-270.996,0,0
1587071694,-157.227,191.895,276.367,46.387,0,0
1587071694,-135.742,465.332,264.648,-6.348,0,0
1587071694,-369.141,-311.035,188.965,-303.223,0,0
1587071694,-424.805,-745.117,235.352,-298.34,0,0
1587071694,-261.719,-106.934,315.43,-49.316,0,0
1587071694,-189.941,497.07,286.133,-6.836,0,0
1587071694,-330.566,243.164,238.281,-296.387,0,0
1587071694,-430.664,-664.062,212.891,-433.594,0,0
1587071694,-330.566,-491.211,286.133,-166.992,0,0
1587071694,-224.609,635.254,308.594,-19.043,0,0
1587071694,-318.359,469.727,244.141,-263.184,0,0
1587071694,-483.398,-161.621,233.398,-475.586,0,0
1587071694,-402.832,-37.109,253.906,-290.527,0,0
1587071694,-226.074,360.84,258.301,-39.551,0,0
1587071694,-257.812,204.102,219.727,-172.852,0,0
1587071694,-424.316,-619.141,180.176,-436.035,0,0
1587071694,-415.039,-416.504,281.738,-346.191,0,0
1587071694,-212.891,573.242,354.004,-36.133,0,0
1587071694,-173.34,619.629,309.57,-35.645,0,0
1587071694,-346.191,-82.031,262.695,-354.492,0,0
1587071694,-413.086,-534.668,293.945,-408.203,0,0
1587071694,-253.418,113.281,379.883,-128.418,0,0
1587071694,-184.57,564.453,354.98,-48.828,0,0
1587071694,-342.285,168.457,316.406,-331.543,0,0
1587071694,-452.148,-156.25,310.059,-474.121,0,0
1587071694,-328.125,-103.027,319.336,-191.895,0,0
1587071694,-184.082,-29.785,341.309,5.371,0,0
1587071694,-281.25,64.941,331.055,-236.816,0,0
1587071694,-444.336,171.387,321.777,-483.887,0,0
1587071694,-361.816,216.797,350.098,-289.062,0,0
1587071694,-174.805,116.211,374.023,-0.977,0,0
1587071694,-229.98,200.684,381.836,-137.207,0,0
1587071694,-425.293,283.203,375,-445.312,0,0
1587071694,-408.203,-104.492,387.207,-372.559,0,0
1587071694,-219.727,108.887,435.059,-42.48,0,0
1587071694,-192.383,501.465,481.445,-61.523,0,0
1587071694,-358.887,300.781,459.473,-391.113,0,0
1587071694,-389.16,-335.938,458.008,-410.645,0,0
1587071694,-240.723,-263.184,530.273,-108.398,0,0
1587071694,-170.898,475.586,562.012,-20.508,0,0
1587071694,-299.805,626.465,517.578,-276.367,0,0
1587071694,-414.551,-90.332,463.867,-424.316,0,0
1587071694,-300.293,-526.855,510.254,-184.57,0,0
1587071694,-172.852,437.012,583.984,38.574,0,0
1587071694,-253.418,791.504,530.273,-138.672,0,0
1587071694,-389.648,-149.902,484.863,-409.18,0,0
1587071694,-316.895,-195.801,560.547,-260.742,0,0
1587071694,-179.199,714.355,641.602,28.32,0,0
1587071694,-215.82,928.711,590.82,-69.336,0,0
1587071694,-415.527,-193.359,474.609,-392.09,0,0
1587071694,-439.941,-822.754,502.441,-363.77,0,0
1587071694,-261.23,133.301,594.727,-41.504,0,0
1587071694,-213.379,833.008,551.27,-4.395,0,0
1587071694,-377.441,23.438,468.262,-316.406,0,0
1587071694,-464.355,-445.312,503.418,-406.738,0,0
1587071694,-315.918,324.707,580.078,-121.582,0,0
1587071694,-201.172,805.664,570.801,5.859,0,0
1587071694,-293.457,289.062,506.348,-223.633,0,0
1587071694,-432.129,-249.512,527.832,-417.969,0,0
1587071694,-379.883,94.727,579.59,-247.559,0,0
1587071694,-226.074,434.57,579.59,-6.348,0,0
1587071694,-264.648,101.074,540.527,-152.344,0,0
1587071694,-457.52,-461.426,504.395,-445.312,0,0
1587071694,-419.922,-297.363,541.016,-317.383,0,0
1587071694,-220.215,258.789,583.496,-8.301,0,0
1587071694,-244.141,120.605,554.199,-82.031,0,0
1587071694,-448.242,34.668,532.715,-415.527,0,0
1587071694,-456.055,-40.527,503.418,-412.598,0,0
1587071694,-305.664,86.426,536.133,-97.656,0,0
1587071694,-259.277,455.078,549.805,-54.688,0,0
1587071694,-393.555,390.137,509.277,-346.191,0,0
1587071694,-481.445,75.684,503.418,-454.102,0,0
1587071694,-329.102,45.898,534.668,-184.57,0,0
1587071694,-200.195,309.082,552.734,5.371,0,0
1587071694,-314.453,338.379,521.484,-227.051,0,0
1587071694,-488.281,70.801,476.074,-482.91,0,0
1587071694,-411.133,-604.98,452.637,-270.02,0,0
1587071694,-272.461,-274.414,513.184,0.977,0,0
1587071694,-337.891,830.078,520.996,-155.273,0,0
1587071694,-496.094,284.668,423.34,-425.781,0,0
1587071694,-480.469,-190.43,456.055,-328.125,0,0
1587071694,-309.57,423.828,541.016,-33.691,0,0
1587071694,-296.875,909.18,500.977,-87.402,0,0
1587071694,-462.891,353.516,417.969,-409.18,0,0
1587071694,-467.285,-358.887,442.383,-398.926,0,0
1587071694,-300.293,-112.793,530.273,-108.887,0,0
1587071694,-275.391,310.059,519.531,-61.523,0,0
1587071694,-401.367,-35.156,434.082,-295.41,0,0
1587071694,-490.234,-783.203,419.922,-415.527,0,0
1587071694,-379.883,-301.27,524.902,-196.777,0,0
1587071694,-245.117,720.703,550.293,-22.461,0,0
1587071694,-342.285,438.965,446.289,-237.305,0,0
1587071694,-498.047,-239.746,436.523,-483.887,0,0
1587071694,-416.016,145.996,515.625,-279.297,0,0
1587071694,-228.516,546.875,485.84,12.207,0,0
1587071694,-266.113,294.434,448.242,-125.977,0,0
1587071694,-478.516,-66.895,434.082,-435.059,0,0
1587071694,-486.328,-316.895,425.781,-377.441,0,0
1587071694,-297.363,130.371,467.285,-54.199,0,0
1587071694,-236.328,2.93,411.133,-13.672,0,0
1587071694,-391.602,-534.18,376.465,-332.52,0,0
1587071694,-490.723,-127.441,401.855,-452.637,0,0
1587071694,-373.535,298.34,429.688,-172.363,0,0
1587071694,-278.809,526.367,445.801,-62.5,0,0
1587071694,-378.906,281.738,412.598,-302.734,0,0
1587071694,-487.793,-8.301,412.598,-466.797,0,0
1587071694,-371.582,71.289,439.453,-228.516,0,0
1587071694,-220.215,464.355,454.59,9.766,0,0
1587071694,-312.988,430.176,396.973,-185.059,0,0
1587071694,-466.797,-389.648,343.75,-440.43,0,0
1587071694,-415.039,-507.324,395.02,-280.762,0,0
1587071694,-257.324,-452.148,440.918,-14.648,0,0
1587071694,-295.898,-117.188,469.238,-165.527,0,0
1587071694,-472.656,152.344,437.012,-467.285,0,0
1587071694,-482.91,-413.574,423.34,-386.719,0,0
1587071694,-334.961,-50.293,482.91,-104.98,0,0
1587071694,-275.391,751.465,488.281,-94.727,0,0
1587071694,-420.41,486.328,414.551,-387.695,0,0
1587071694,-505.859,-327.637,383.301,-484.375,0,0
1587071694,-364.258,-112.793,455.566,-201.172,0,0
1587071694,-265.137,633.789,450.195,-70.801,0,0
1587071694,-429.688,207.031,336.914,-348.633,0,0
1587071694,-592.285,-625,308.594,-555.664,0,0
1587071694,-502.441,-291.504,369.141,-358.887,0,0
1587071694,-338.379,517.578,391.602,-109.375,0,0
1587071694,-407.227,450.195,339.355,-277.832,0,0
1587071694,-583.008,-534.668,241.699,-552.734,0,0
1587071694,-553.711,-646.484,285.156,-406.738,0,0
1587071694,-405.273,512.207,357.422,-168.457,0,0
1587071694,-411.133,715.82,284.18,-254.883,0,0
1587071694,-552.734,-18.066,247.559,-538.086,0,0
1587071694,-614.258,-190.43,312.5,-564.453,0,0
1587071694,-520.02,434.57,335.449,-295.898,0,0
1587071694,-503.906,477.051,267.09,-312.5,0,0
1587071694,-666.992,-583.984,200.684,-616.211,0,0
1587071694,-774.414,-743.652,269.043,-709.961,0,0
1587071694,-665.039,339.355,323.242,-473.633,0,0
1587071694,-559.082,797.852,225.098,-335.938,0,0
1587071694,-718.262,474.609,147.949,-610.84,0,0
1587071694,-890.137,-88.379,129.883,-833.008,0,0
1587071694,-814.941,-127.441,175.293,-624.023,0,0
1587071694,-647.949,417.48,180.664,-408.691,0,0
1587071694,-711.914,546.875,83.984,-586.914,0,0
1587071694,-913.086,174.805,23.438,-869.629,0,0
1587071694,-885.742,82.52,17.578,-776.855,0,0
1587071694,-700.195,57.617,-31.738,-447.754,0,0
1587071694,-681.152,207.031,-88.867,-495.117,0,0
1587071694,-862.305,409.668,-117.188,-807.129,0,0
1587071694,-881.348,66.406,-138.184,-755.859,0,0
1587071694,-702.148,-46.875,-91.309,-441.895,0,0
1587071694,-631.836,557.617,-61.523,-395.996,0,0
1587071694,-740.723,694.824,-142.578,-653.32,0,0
1587071694,-825.684,10.742,-194.824,-780.762,0,0
1587071694,-689.941,18.555,-156.25,-483.887,0,0
1587071694,-524.414,518.555,-132.324,-256.348,0,0
1587071694,-613.77,599.609,-165.039,-471.191,0,0
1587071694,-753.906,35.645,-206.543,-679.688,0,0
1587071694,-645.508,-343.75,-169.434,-466.309,0,0
1587071694,-437.012,148.438,-100.098,-166.992,0,0
1587071695,-471.68,587.402,-127.441,-288.574,0,0
1587071695,-630.371,157.715,-250.488,-549.805,0,0
1587071695,-582.031,-479.98,-274.902,-451.172,0,0
1587071695,-430.176,367.676,-191.406,-186.035,0,0
1587071695,-431.152,-930.664,-256.836,-214.355,0,0
1587071695,-610.352,355.469,-340.332,-480.469,0,0
1587071695,-661.133,-57.617,-342.773,-513.672,0,0
1587071695,-498.047,579.102,-333.008,-248.535,0,0
1587071695,-404.297,-939.453,-384.277,-148.926,0,0
1587071695,-549.316,451.172,-472.168,-407.227,0,0
1587071695,-681.641,-258.301,-476.562,-593.262,0,0
1587071695,-556.641,-12.207,-413.086,-365.723,0,0
1587071695,-390.137,578.613,-370.117,-131.836,0,0
1587071695,-460.938,226.562,-414.551,-301.27,0,0
1587071695,-621.094,-416.504,-422.852,-534.18,0,0
1587071695,-555.176,332.52,-347.656,-377.441,0,0
1587071695,-371.094,912.109,-337.402,-90.82,0,0
1587071695,-404.297,908.691,-369.629,-201.66,0,0
1587071695,-603.027,561.035,-400.879,-515.625,0,0
1587071695,-606.445,270.996,-381.348,-446.289,0,0
1587071695,-395.508,519.043,-313.477,-137.207,0,0
1587071695,-347.656,859.375,-304.688,-128.906,0,0
1587071695,-522.461,429.688,-369.629,-438.965,0,0
1587071695,-613.77,-169.434,-378.418,-546.387,0,0
1587071695,-480.957,2.441,-344.238,-243.652,0,0
1587071695,-381.836,-79.102,-344.238,-90.82,0,0
1587071695,-523.438,113.77,-339.355,-370.117,0,0
1587071695,-666.992,355.469,-374.512,-590.332,0,0
1587071695,-563.477,150.879,-366.211,-374.023,0,0
1587071695,-409.668,590.82,-313.477,-122.07,0,0
1587071695,-458.496,917.48,-323.73,-300.293,0,0
1587071695,-614.746,395.508,-363.77,-558.594,0,0
1587071695,-576.66,-13.672,-328.613,-404.785,0,0
1587071695,-405.273,532.227,-266.602,-133.301,0,0
1587071695,-425.781,729.98,-311.523,-226.074,0,0
1587071695,-625,100.586,-378.418,-533.203,0,0
1587071695,-636.719,-650.391,-401.855,-511.23,0,0
1587071695,-466.309,-453.613,-348.633,-225.586,0,0
1587071695,-467.285,746.582,-323.242,-241.211,0,0
1587071695,-615.723,579.102,-403.809,-541.504,0,0
1587071695,-683.594,-480.469,-437.012,-613.77,0,0
1587071695,-556.152,-145.996,-386.23,-355.469,0,0
1587071695,-426.27,964.844,-360.352,-195.801,0,0
1587071695,-547.363,725.098,-441.895,-423.34,0,0
1587071695,-705.566,-308.594,-491.699,-657.715,0,0
1587071695,-612.793,-139.648,-421.875,-457.52,0,0
1587071695,-452.148,625.977,-422.852,-226.074,0,0
1587071695,-532.715,411.133,-492.676,-362.305,0,0
1587071695,-726.562,-468.262,-510.254,-636.23,0,0
1587071695,-687.988,-416.016,-439.453,-560.547,0,0
1587071695,-506.348,586.914,-389.16,-254.883,0,0
1587071695,-504.883,666.992,-455.078,-290.527,0,0
1587071695,-677.734,205.566,-521.973,-608.398,0,0
1587071695,-712.402,245.117,-486.328,-626.465,0,0
1587071695,-546.875,645.508,-437.012,-312.5,0,0
1587071695,-462.891,671.875,-461.914,-244.141,0,0
1587071695,-599.609,355.469,-488.281,-536.133,0,0
1587071695,-690.43,143.066,-470.703,-635.742,0,0
1587071695,-552.246,207.52,-438.477,-392.578,0,0
1587071695,-429.688,58.105,-466.309,-201.66,0,0
1587071695,-556.641,-280.762,-504.883,-401.855,0,0
1587071695,-731.445,44.434,-494.141,-701.172,0,0
1587071695,-653.809,273.438,-514.648,-513.184,0,0
1587071695,-488.281,493.164,-501.465,-236.328,0,0
1587071695,-536.621,672.363,-489.258,-378.418,0,0
1587071695,-721.191,323.242,-543.945,-667.969,0,0
1587071695,-687.012,-53.223,-545.41,-574.707,0,0
1587071695,-502.441,213.867,-499.512,-278.809,0,0
1587071695,-505.371,643.555,-491.699,-314.941,0,0
1587071695,-673.828,291.504,-554.688,-611.816,0,0
1587071695,-712.891,-385.254,-601.562,-649.902,0,0
1587071695,-565.43,-443.848,-571.289,-333.496,0,0
1587071695,-481.934,91.309,-566.895,-234.375,0,0
1587071695,-624.023,208.984,-619.141,-533.691,0,0
1587071695,-731.445,-351.074,-653.809,-706.543,0,0
1587071695,-598.633,-213.379,-603.516,-461.914,0,0
1587071695,-458.984,759.277,-542.969,-270.02,0,0
1587071695,-564.453,922.363,-602.051,-476.562,0,0
1587071695,-749.512,-94.238,-663.086,-729.004,0,0
1587071695,-675.781,-390.625,-589.844,-559.082,0,0
1587071695,-491.211,599.609,-520.508,-287.598,0,0
1587071695,-506.348,817.871,-543.945,-409.668,0,0
1587071695,-640.137,-186.523,-576.172,-668.945,0,0
1587071695,-638.184,-636.23,-533.691,-608.398,0,0
1587071695,-484.375,283.691,-469.238,-311.035,0,0
1587071695,-442.383,670.898,-510.254,-289.551,0,0
1587071695,-604.492,-343.75,-621.094,-582.031,0,0
1587071695,-678.223,-835.449,-574.219,-688.477,0,0
1587071695,-543.945,66.406,-466.309,-440.918,0,0
1587071695,-439.453,497.559,-508.301,-305.664,0,0
1587071695,-561.035,137.207,-569.824,-544.922,0,0
1587071695,-710.449,-185.547,-568.848,-727.051,0,0
1587071695,-599.609,189.941,-509.766,-495.605,0,0
1587071695,-431.152,744.629,-495.117,-261.23,0,0
1587071695,-515.137,342.285,-563.965,-462.891,0,0
1587071695,-690.918,-394.531,-585.938,-747.559,0,0
1587071695,-638.184,-291.992,-522.949,-587.891,0,0
1587071695,-461.914,137.695,-517.09,-306.152,0,0
1587071695,-485.84,259.277,-563.965,-427.246,0,0
1587071695,-673.828,160.156,-592.773,-744.629,0,0
1587071695,-674.805,-157.715,-577.637,-707.031,0,0
1587071695,-508.301,-150.879,-534.668,-385.254,0,0
1587071695,-479.492,92.773,-528.32,-361.816,0,0
1587071695,-636.719,283.203,-567.871,-661.621,0,0
1587071695,-716.309,-11.23,-624.023,-721.191,0,0
1587071695,-563.965,-33.691,-598.145,-443.848,0,0
1587071695,-447.266,261.23,-605.957,-326.172,0,0
1587071695,-558.105,262.207,-627.441,-580.566,0,0
1587071695,-694.824,108.887,-630.859,-781.25,0,0
1587071695,-611.816,-542.48,-633.301,-547.363,0,0
1587071695,-462.891,-308.594,-542.969,-311.523,0,0
1587071695,-530.762,779.785,-518.555,-483.398,0,0
1587071695,-682.617,271.484,-611.328,-755.859,0,0
1587071695,-671.387,-195.312,-577.637,-657.227,0,0
1587071695,-513.672,389.648,-520.508,-366.699,0,0
1587071695,-507.812,520.02,-578.613,-430.664,0,0
1587071695,-680.176,32.715,-626.465,-729.492,0,0
1587071695,-702.148,-372.07,-604.492,-709.961,0,0
1587071695,-539.551,-68.359,-541.992,-421.875,0,0
1587071695,-467.285,377.441,-546.875,-367.188,0,0
1587071695,-638.184,-41.992,-613.281,-662.109,0,0
1587071695,-753.418,-760.742,-609.863,-781.25,0,0
1587071695,-602.539,-187.5,-515.625,-513.672,0,0
1587071695,-480.469,869.141,-513.184,-362.793,0,0
1587071695,-613.77,459.961,-603.516,-568.359,0,0
1587071695,-751.953,-280.273,-622.07,-777.832,0,0
1587071695,-645.508,41.992,-545.41,-618.164,0,0
1587071695,-475.586,686.035,-502.93,-347.656,0,0
1587071695,-511.23,577.637,-560.547,-488.281,0,0
1587071695,-691.895,-152.344,-620.605,-770.02,0,0
1587071695,-697.266,-342.285,-580.566,-685.059,0,0
1587071695,-525.879,133.301,-540.527,-418.457,0,0
1587071695,-515.625,248.047,-564.453,-439.941,0,0
1587071695,-686.035,-11.23,-592.773,-746.582,0,0
1587071695,-723.145,-127.93,-602.051,-767.578,0,0
1587071695,-548.828,240.723,-581.543,-433.105,0,0
1587071695,-469.727,44.434,-609.863,-330.566,0,0
1587071695,-624.023,-364.258,-626.953,-629.395,0,0
1587071695,-707.52,-90.82,-615.234,-789.062,0,0
1587071695,-590.82,-21.973,-601.074,-534.668,0,0
1587071695,-482.91,280.273,-590.332,-373.535,0,0
1587071695,-596.191,351.074,-637.695,-589.844,0,0
1587071695,-763.184,-333.984,-680.664,-828.613,0,0
1587071695,-697.266,-492.188,-663.574,-710.449,0,0
1587071695,-516.602,-409.18,-645.996,-455.566,0,0
1587071695,-527.832,-156.25,-631.836,-556.641,0,0
1587071695,-709.473,-70.312,-659.18,-829.102,0,0
1587071695,-723.633,-424.805,-666.016,-758.789,0,0
1587071695,-563.965,18.555,-620.117,-469.238,0,0
1587071695,-526.367,629.395,-619.141,-454.102,0,0
1587071695,-645.508,310.059,-674.316,-739.258,0,0
1587071695,-704.102,-479.004,-660.645,-810.059,0,0
1587071695,-580.566,-233.398,-561.523,-497.559,0,0
1587071695,-491.211,605.957,-562.5,-390.137,0,0
1587071695,-615.234,79.59,-648.926,-658.691,0,0
1587071695,-717.773,-889.16,-675.293,-804.688,0,0
1587071695,-641.113,-593.262,-598.145,-600.586,0,0
1587071695,-513.672,551.27,-534.668,-399.414,0,0
1587071695,-570.801,546.387,-605.957,-556.641,0,0
1587071695,-731.445,-374.512,-655.273,-789.551,0,0
1587071695,-688.965,-634.277,-626.953,-661.621,0,0
1587071695,-528.32,250.488,-586.426,-429.199,0,0
1587071695,-544.922,579.102,-626.465,-531.738,0,0
1587071695,-720.703,-198.73,-662.598,-801.758,0,0
1587071695,-711.426,-379.883,-628.418,-757.324,0,0
1587071695,-530.762,264.16,-600.098,-477.051,0,0
1587071695,-482.91,394.531,-624.023,-447.754,0,0
1587071695,-629.395,-542.969,-651.367,-721.68,0,0
1587071695,-716.797,-717.285,-600.586,-836.914,0,0
1587071695,-575.684,252.93,-548.34,-576.172,0,0
1587071695,-427.734,560.059,-547.852,-414.551,0,0
1587071695,-526.855,116.211,-584.473,-645.508,0,0
1587071695,-655.762,-183.105,-575.195,-803.223,0,0
1587071695,-522.949,88.867,-526.367,-567.871,0,0
1587071695,-377.93,298.34,-531.738,-326.66,0,0
1587071695,-467.285,133.301,-557.617,-490.723,0,0
1587071695,-628.418,-38.086,-539.551,-760.254,0,0
1587071695,-591.309,6.348,-515.137,-618.652,0,0
1587071695,-402.832,-150.391,-508.789,-309.082,0,0
1587071695,-396.973,-154.785,-500.977,-389.16,0,0
1587071695,-590.332,79.102,-522.461,-722.168,0,0
1587071695,-605.957,-48.34,-528.32,-705.078,0,0
1587071695,-393.066,-359.863,-500,-359.375,0,0
1587071695,-347.656,-46.875,-479.492,-308.594,0,0
1587071695,-533.203,391.602,-513.184,-620.117,0,0
1587071695,-600.098,-173.828,-528.32,-717.285,0,0
1587071695,-459.961,-117.676,-468.75,-468.262,0,0
1587071695,-351.562,585.449,-450.684,-322.754,0,0
1587071695,-463.867,576.66,-521.484,-553.711,0,0
1587071695,-595.215,-262.695,-586.426,-770.996,0,0
1587071695,-503.906,-730.469,-538.086,-540.527,0,0
1587071695,-366.211,-113.281,-461.426,-304.199,0,0
1587071695,-401.855,130.371,-496.582,-454.59,0,0
1587071695,-534.18,-602.051,-562.988,-700.195,0,0
1587071695,-540.039,-689.941,-524.414,-604.004,0,0
1587071695,-406.25,240.234,-460.938,-345.215,0,0
1587071695,-391.602,896.973,-480.957,-412.109,0,0
1587071695,-563.477,112.793,-563.477,-678.223,0,0
1587071695,-622.07,-833.496,-562.988,-688.965,0,0
1587071695,-498.047,-6.836,-447.754,-437.5,0,0
1587071695,-393.066,728.027,-449.219,-360.84,0,0
1587071695,-506.348,90.82,-529.297,-614.746,0,0
1587071695,-623.047,-740.234,-540.527,-740.234,0,0
1587071695,-505.859,-312.012,-461.426,-509.766,0,0
1587071695,-366.211,621.582,-424.316,-328.613,0,0
1587071695,-423.828,-63.477,-496.582,-488.77,0,0
1587071695,-548.34,-900.391,-512.207,-687.988,0,0
1587071695,-487.305,-102.051,-419.434,-541.504,0,0
1587071695,-325.195,560.059,-406.25,-272.461,0,0
1587071695,-373.047,462.402,-447.754,-384.766,0,0
1587071695,-567.871,-1.953,-463.379,-674.316,0,0
1587071695,-553.711,-75.684,-429.688,-596.68,0,0
1587071695,-346.68,324.219,-391.602,-272.949,0,0
1587071695,-310.059,403.32,-421.875,-309.082,0,0
1587071695,-483.398,-143.066,-479.98,-614.258,0,0
1587071695,-518.555,-606.445,-462.402,-623.047,0,0
1587071695,-345.215,-394.043,-416.016,-340.332,0,0
1587071695,-258.301,131.348,-403.32,-231.934,0,0
1587071695,-408.691,182.617,-438.477,-525.391,0,0
1587071695,-524.902,-356.934,-477.539,-693.359,0,0
1587071695,-420.41,-493.164,-456.543,-445.312,0,0
1587071695,-291.992,-235.84,-427.734,-254.883,0,0
1587071695,-386.23,175.293,-431.152,-461.426,0,0
1587071695,-547.852,10.254,-478.027,-713.379,0,0
1587071695,-480.469,-358.398,-449.219,-552.734,0,0
1587071695,-319.824,79.59,-413.574,-284.18,0,0
1587071695,-340.82,263.184,-479.98,-384.277,0,0
1587071695,-502.93,-400.391,-542.48,-667.48,0,0
1587071695,-507.324,-988.77,-547.852,-618.652,0,0
1587071695,-342.773,-597.168,-473.145,-333.008,0,0
1587071695,-300.293,435.547,-436.523,-316.895,0,0
1587071695,-433.594,279.297,-510.254,-563.477,0,0
1587071695,-490.234,-392.09,-492.676,-620.605,0,0
1587071695,-353.516,-30.762,-409.18,-371.582,0,0
1587071695,-234.375,559.57,-416.992,-250.488,0,0
1587071695,-334.473,55.664,-467.285,-450.684,0,0
1587071695,-482.91,-589.844,-458.008,-629.395,0,0
1587071695,-354.004,-308.105,-439.941,-436.035,0,0
1587071695,-201.172,128.418,-437.5,-195.801,0,0
1587071695,-307.617,-104.98,-464.844,-367.676,0,0
1587071695,-489.258,-671.387,-483.398,-646.973,0,0
1587071695,-451.172,-375.488,-424.805,-527.832,0,0
1587071695,-260.254,514.16,-389.648,-240.723,0,0
1587071695,-248.535,414.551,-462.402,-289.551,0,0
1587071695,-438.965,-705.078,-508.301,-579.59,0,0
1587071695,-486.816,-605.957,-424.316,-594.238,0,0
1587071695,-298.828,188.965,-392.578,-282.715,0,0
1587071695,-221.191,259.766,-417.969,-222.168,0,0
1587071695,-384.277,-110.84,-477.051,-529.297,0,0
1587071695,-471.68,-508.789,-487.793,-646.973,0,0
1587071695,-344.238,-323.73,-430.176,-387.695,0,0
1587071695,-241.211,-235.84,-438.477,-225.586,0,0
1587071695,-347.168,-386.23,-463.867,-465.82,0,0
1587071695,-472.168,-262.695,-453.613,-661.621,0,0
1587071695,-357.91,-132.324,-425.781,-412.598,0,0
1587071695,-187.5,-220.703,-416.992,-148.438,0,0
1587071696,-257.812,-171.875,-422.363,-305.176,0,0
1587071696,-443.359,-70.801,-438.965,-587.891,0,0
1587071696,-410.645,-378.418,-443.359,-488.77,0,0
1587071696,-233.398,-65.918,-402.832,-217.773,0,0
1587071696,-253.418,401.855,-416.016,-279.785,0,0
1587071696,-437.5,46.387,-496.094,-562.012,0,0
1587071696,-450.684,-571.289,-487.793,-560.547,0,0
1587071696,-267.578,-679.688,-421.387,-277.344,0,0
1587071696,-192.871,-231.934,-399.414,-214.844,0,0
1587071696,-342.285,-46.875,-423.828,-477.051,0,0
1587071696,-430.176,-528.32,-433.594,-588.867,0,0
1587071696,-291.504,-277.344,-384.277,-325.684,0,0
1587071696,-161.133,501.953,-370.117,-162.109,0,0
1587071696,-258.789,378.418,-427.246,-379.883,0,0
1587071696,-427.246,-418.457,-469.727,-613.281,0,0
1587071696,-354.492,-443.359,-422.363,-441.406,0,0
1587071696,-176.27,448.242,-368.164,-164.551,0,0
1587071696,-195.312,514.16,-413.086,-264.16,0,0
1587071696,-365.234,-487.793,-471.191,-548.34,0,0
1587071696,-354.004,-854.98,-415.039,-482.422,0,0
1587071696,-184.57,41.992,-352.051,-183.105,0,0
1587071696,-175.293,477.051,-408.203,-229.492,0,0
1587071696,-322.266,-390.625,-479.98,-498.047,0,0
1587071696,-364.258,-998.535,-408.691,-497.559,0,0
1587071696,-228.516,-269.531,-307.129,-248.047,0,0
1587071696,-122.559,405.273,-325.684,-160.645,0,0
1587071696,-242.676,-8.301,-376.465,-408.203,0,0
1587071696,-372.559,-543.457,-377.441,-581.543,0,0
1587071696,-255.859,-184.57,-333.496,-352.539,0,0
1587071696,-114.746,421.387,-328.613,-150.391,0,0
1587071696,-193.359,-68.359,-384.766,-330.078,0,0
1587071696,-359.863,-880.371,-412.598,-570.312,0,0
1587071696,-304.688,-750.488,-380.371,-441.895,0,0
1587071696,-126.953,-159.18,-344.727,-155.762,0,0
1587071696,-145.996,-297.852,-374.023,-239.258,0,0
1587071696,-329.102,-423.34,-409.668,-552.246,0,0
1587071696,-348.145,-228.516,-422.852,-489.746,0,0
1587071696,-165.039,-54.199,-411.621,-174.805,0,0
1587071696,-105.469,29.297,-431.152,-163.086,0,0
1587071696,-275.391,-186.523,-459.473,-483.398,0,0
1587071696,-351.074,-484.375,-453.613,-545.41,0,0
1587071696,-172.852,-482.91,-400.879,-241.211,0,0
1587071696,-80.078,-175.293,-373.047,-126.953,0,0
1587071696,-230.957,-137.695,-414.062,-382.812,0,0
1587071696,-380.859,-293.945,-436.523,-572.266,0,0
1587071696,-251.465,-741.211,-448.73,-328.125,0,0
1587071696,-101.562,-521.973,-392.09,-125.488,0,0
1587071696,-209.961,300.293,-385.742,-329.59,0,0
1587071696,-358.398,-298.828,-471.191,-550.293,0,0
1587071696,-301.758,-666.016,-443.359,-427.246,0,0
1587071696,-135.254,-27.832,-384.277,-170.41,0,0
1587071696,-136.23,340.332,-408.691,-234.375,0,0
1587071696,-304.688,-302.734,-456.543,-508.789,0,0
1587071696,-330.566,-857.422,-425.781,-481.934,0,0
1587071696,-160.156,-435.547,-349.609,-184.57,0,0
1587071696,-109.863,33.203,-352.051,-153.809,0,0
1587071696,-278.809,-359.375,-408.203,-445.312,0,0
1587071696,-383.301,-812.012,-397.949,-535.156,0,0
1587071696,-254.395,-141.113,-321.289,-261.719,0,0
1587071696,-145.508,708.984,-331.543,-138.184,0,0
1587071696,-225.586,137.207,-430.176,-337.891,0,0
1587071696,-349.609,-838.379,-444.336,-521.484,0,0
1587071696,-304.199,-400.879,-353.516,-360.84,0,0
1587071696,-145.02,392.09,-341.797,-127.93,0,0
1587071696,-194.824,228.027,-408.691,-276.855,0,0
1587071696,-358.887,-444.336,-437.012,-519.531,0,0
1587071696,-322.266,-656.738,-406.738,-424.805,0,0
1587071696,-162.598,-220.215,-364.258,-183.594,0,0
1587071696,-142.09,-329.102,-402.344,-189.941,0,0
1587071696,-308.594,-864.746,-453.613,-478.027,0,0
1587071696,-371.094,-505.859,-430.664,-518.555,0,0
1587071696,-207.031,36.133,-397.949,-191.406,0,0
1587071696,-117.188,224.609,-396.973,-117.676,0,0
1587071696,-262.695,-50.781,-425.293,-397.949,0,0
1587071696,-362.305,-333.496,-437.5,-527.344,0,0
1587071696,-229.004,-311.035,-420.41,-305.664,0,0
1587071696,-111.328,185.547,-402.832,-127.93,0,0
1587071696,-235.352,121.582,-454.102,-332.031,0,0
1587071696,-375,-714.355,-493.164,-565.43,0,0
1587071696,-287.598,-715.332,-454.59,-381.348,0,0
1587071696,-121.094,-550.293,-410.645,-105.957,0,0
1587071696,-166.992,-82.031,-378.906,-229.004,0,0
1587071696,-340.332,39.551,-432.129,-508.301,0,0
1587071696,-312.988,-706.543,-452.637,-396.973,0,0
1587071696,-142.578,-386.23,-374.512,-113.281,0,0
1587071696,-139.16,288.574,-376.953,-165.039,0,0
1587071696,-316.895,-43.945,-446.289,-483.887,0,0
1587071696,-358.398,-661.133,-429.688,-529.297,0,0
1587071696,-198.242,-319.336,-361.816,-219.238,0,0
1587071696,-110.84,511.23,-354.004,-139.648,0,0
1587071696,-239.258,123.535,-414.551,-401.855,0,0
1587071696,-328.125,-818.848,-468.75,-533.691,0,0
1587071696,-241.211,-707.031,-398.926,-309.57,0,0
1587071696,-138.672,385.742,-334.473,-117.188,0,0
1587071696,-195.801,494.141,-423.34,-311.035,0,0
1587071696,-348.145,-288.086,-454.102,-557.129,0,0
1587071696,-279.297,-259.277,-382.812,-385.254,0,0
1587071696,-122.559,422.852,-351.562,-115.234,0,0
1587071696,-170.898,272.461,-400.391,-243.652,0,0
1587071696,-352.051,-406.738,-425.781,-538.086,0,0
1587071696,-358.887,-373.535,-387.695,-474.121,0,0
1587071696,-171.387,209.473,-347.168,-177.246,0,0
1587071696,-144.531,265.137,-377.93,-168.945,0,0
1587071696,-312.5,-540.039,-433.594,-454.59,0,0
1587071696,-382.324,-875.488,-396.973,-513.184,0,0
1587071696,-228.027,-93.262,-328.125,-241.699,0,0
1587071696,-123.047,276.855,-362.305,-125.488,0,0
1587071696,-260.254,-551.758,-416.504,-355.469,0,0
1587071696,-407.227,-728.027,-373.047,-542.48,0,0
1587071696,-304.688,-154.785,-336.426,-331.055,0,0
1587071696,-151.367,170.898,-325.684,-114.746,0,0
1587071696,-223.145,250.977,-332.52,-309.57,0,0
1587071696,-396.973,-95.215,-358.887,-592.773,0,0
1587071696,-330.078,-396.484,-341.309,-450.195,0,0
1587071696,-141.113,-370.605,-309.082,-141.113,0,0
1587071696,-180.176,-114.746,-317.383,-259.766,0,0
1587071696,-386.719,-32.715,-368.164,-569.824,0,0
1587071696,-396.484,-337.402,-391.113,-517.09,0,0
1587071696,-207.52,-406.25,-357.422,-195.312,0,0
1587071696,-163.574,35.156,-350.098,-168.457,0,0
1587071696,-318.359,178.711,-404.785,-481.934,0,0
1587071696,-398.438,-392.09,-423.34,-557.129,0,0
1587071696,-247.07,-321.289,-357.91,-280.273,0,0
1587071696,-146.973,407.227,-324.707,-132.812,0,0
1587071696,-270.508,539.062,-378.418,-378.906,0,0
1587071696,-394.531,-232.91,-440.918,-592.285,0,0
1587071696,-296.387,-698.242,-407.227,-365.234,0,0
1587071696,-130.859,-209.961,-346.68,-119.629,0,0
1587071696,-208.496,-5.859,-375,-285.156,0,0
1587071696,-402.344,-625.977,-408.691,-553.223,0,0
1587071696,-346.68,-917.48,-363.77,-446.777,0,0
1587071696,-170.898,-122.07,-270.996,-178.223,0,0
1587071696,-192.383,469.727,-303.711,-231.445,0,0
1587071696,-369.629,-222.656,-397.461,-529.785,0,0
1587071696,-390.137,-680.664,-349.609,-532.715,0,0
1587071696,-230.469,44.922,-245.117,-219.238,0,0
1587071696,-161.133,596.191,-264.648,-185.059,0,0
1587071696,-298.34,-160.156,-341.309,-459.473,0,0
1587071696,-403.809,-979.98,-332.52,-562.012,0,0
1587071696,-277.344,-518.555,-257.324,-336.426,0,0
1587071696,-155.762,261.23,-203.613,-178.223,0,0
1587071696,-258.789,-235.352,-239.746,-364.258,0,0
1587071696,-426.27,-993.652,-219.727,-556.641,0,0
1587071696,-352.539,-613.77,-105.957,-398.438,0,0
1587071696,-179.688,110.352,-81.543,-150.879,0,0
1587071696,-222.656,221.68,-125.488,-267.578,0,0
1587071696,-382.324,-234.375,-146.973,-538.086,0,0
1587071696,-372.559,-288.086,-119.629,-447.266,0,0
1587071696,-204.59,94.238,-59.082,-174.805,0,0
1587071696,-181.152,223.633,-70.312,-195.801,0,0
1587071696,-351.562,-371.582,-90.332,-465.332,0,0
1587071696,-404.785,-790.527,-33.203,-494.141,0,0
1587071696,-269.043,-499.512,26.855,-229.004,0,0
1587071696,-186.523,-453.125,47.852,-139.16,0,0
1587071696,-314.941,-367.676,57.129,-417.969,0,0
1587071696,-427.734,-251.465,72.754,-574.707,0,0
1587071696,-309.57,-296.875,118.652,-334.961,0,0
1587071696,-182.617,142.578,151.367,-123.535,0,0
1587071696,-254.395,205.566,125.488,-291.504,0,0
1587071696,-410.156,-213.867,100.098,-550.293,0,0
1587071696,-385.254,-393.555,132.812,-410.645,0,0
1587071696,-240.234,-163.086,180.176,-160.645,0,0
1587071696,-218.262,-20.996,167.48,-252.93,0,0
1587071696,-250.488,90.332,168.945,-385.742,0,0
1587071696,-195.312,-148.438,155.273,-297.363,0,0
1587071696,-242.188,-387.207,169.922,-240.723,0,0
1587071696,-341.309,189.453,200.195,-361.816,0,0
1587071696,-301.758,196.777,175.293,-468.75,0,0
1587071696,-226.562,211.914,198.73,-384.766,0,0
1587071696,-245.117,503.418,212.402,-267.578,0,0
1587071696,-323.242,430.176,193.848,-309.57,0,0
1587071696,-324.219,205.566,205.566,-404.297,0,0
1587071696,-236.328,172.852,214.844,-353.516,0,0
1587071696,-231.445,209.473,197.266,-231.445,0,0
1587071696,-330.566,-78.125,175.781,-237.305,0,0
1587071696,-348.633,-286.621,174.805,-342.285,0,0
1587071696,-267.578,-648.438,179.199,-374.512,0,0
1587071696,-228.516,-188.477,209.961,-315.43,0,0
1587071696,-295.898,599.609,174.316,-267.578,0,0
1587071696,-326.66,74.707,107.422,-329.59,0,0
1587071696,-271.484,-270.996,120.117,-418.945,0,0
1587071696,-231.934,354.004,149.414,-323.73,0,0
1587071696,-268.555,590.332,123.535,-236.816,0,0
1587071696,-331.543,-122.559,81.543,-299.805,0,0
1587071696,-329.59,-390.625,83.496,-398.926,0,0
1587071696,-261.719,200.195,78.613,-358.398,0,0
1587071696,-250,161.621,27.832,-247.07,0,0
1587071696,-315.918,-596.191,-31.738,-273.438,0,0
1587071696,-355.957,-800.293,-0.977,-380.371,0,0
1587071696,-307.129,204.59,61.035,-395.996,0,0
1587071696,-272.461,488.77,-3.418,-264.16,0,0
1587071696,-347.656,-88.867,-33.691,-255.371,0,0
1587071696,-374.512,-319.824,-3.906,-383.301,0,0
1587071696,-305.664,208.008,20.996,-404.297,0,0
1587071696,-240.723,435.547,-16.113,-257.324,0,0
1587071696,-293.945,17.09,-68.359,-208.496,0,0
1587071696,-358.887,-17.578,-53.223,-330.566,0,0
1587071696,-324.219,153.809,-68.359,-419.922,0,0
1587071696,-261.719,114.746,-90.82,-324.707,0,0
1587071696,-302.246,-330.566,-96.191,-227.051,0,0
1587071696,-395.508,-548.34,-74.219,-318.359,0,0
1587071696,-369.141,-104.004,-45.41,-425.293,0,0
1587071696,-270.02,129.395,-68.848,-357.91,0,0
1587071696,-249.512,-20.996,-91.309,-225.098,0,0
1587071696,-363.281,66.895,-117.676,-268.555,0,0
1587071696,-400.391,166.504,-135.254,-384.277,0,0
1587071696,-273.926,-0.488,-151.855,-362.305,0,0
1587071696,-233.887,-256.836,-161.133,-257.812,0,0
1587071696,-323.242,8.789,-140.137,-268.066,0,0
1587071696,-368.164,45.898,-185.547,-389.648,0,0
1587071696,-308.594,-542.969,-236.328,-424.316,0,0
1587071696,-253.906,-590.332,-222.168,-318.848,0,0
1587071696,-332.52,44.922,-211.426,-291.016,0,0
1587071696,-406.738,-84.473,-255.859,-358.398,0,0
1587071696,-345.215,-315.43,-248.535,-421.875,0,0
1587071696,-271.484,44.922,-231.445,-359.375,0,0
1587071696,-294.922,285.156,-273.926,-250,0,0
1587071696,-370.117,-269.531,-310.547,-285.645,0,0
1587071696,-366.699,-502.441,-282.715,-401.855,0,0
1587071696,-310.059,18.066,-242.188,-407.227,0,0
1587071696,-306.641,345.703,-245.117,-306.152,0,0
1587071696,-377.441,-28.809,-272.461,-301.27,0,0
1587071696,-393.555,-548.34,-271.973,-392.09,0,0
1587071696,-317.871,-362.305,-252.93,-387.695,0,0
1587071696,-292.969,51.27,-259.277,-277.832,0,0
1587071696,-368.164,-198.73,-301.758,-267.578,0,0
1587071696,-408.203,-638.184,-312.5,-356.445,0,0
1587071696,-339.355,-126.953,-264.16,-414.062,0,0
1587071696,-282.715,457.031,-272.949,-341.797,0,0
1587071696,-319.824,-22.949,-327.148,-229.004,0,0
1587071696,-395.996,-560.059,-328.125,-325.684,0,0
1587071696,-369.141,-86.914,-282.715,-446.777,0,0
1587071696,-271.484,304.199,-272.949,-357.422,0,0
1587071696,-272.949,-216.309,-304.688,-214.844,0,0
1587071696,-343.262,-993.164,-298.34,-254.883,0,0
1587071696,-372.559,-583.008,-209.961,-414.062,0,0
1587071696,-313.477,272.461,-200.195,-403.809,0,0
1587071696,-272.949,-218.262,-248.535,-238.77,0,0
1587071696,-364.746,-760.254,-234.375,-230.469,0,0
1587071696,-413.086,-268.066,-218.75,-376.465,0,0
1587071696,-333.984,-17.578,-252.441,-414.062,0,0
1587071696,-297.363,146.973,-267.578,-303.223,0,0
1587071696,-371.582,-18.066,-290.527,-265.137,0,0
1587071696,-414.551,-83.008,-299.316,-359.375,0,0
1587071696,-358.398,48.828,-292.969,-413.574,0,0
1587071696,-290.039,157.715,-291.016,-311.523,0,0
1587071696,-332.031,-100.586,-303.223,-245.117,0,0
1587071696,-433.105,-557.617,-308.594,-327.637,0,0
1587071696,-394.531,-536.133,-276.367,-415.039,0,0
1587071696,-304.688,-198.242,-248.535,-368.164,0,0
1587071696,-348.633,250.977,-278.809,-271.484,0,0
1587071696,-447.754,198.242,-333.496,-310.547,0,0
1587071696,-437.012,-354.492,-351.562,-389.648,0,0
1587071696,-345.215,-292.48,-306.152,-367.188,0,0
1587071696,-303.223,242.676,-288.086,-265.625,0,0
1587071696,-408.203,169.434,-333.984,-255.859,0,0
1587071697,-474.121,-491.211,-381.836,-374.512,0,0
1587071697,-395.02,-686.523,-344.727,-427.246,0,0
1587071697,-351.562,-61.035,-275.879,-338.867,0,0
1587071697,-401.855,-205.078,-282.715,-280.273,0,0
1587071697,-443.848,-847.656,-310.547,-345.703,0,0
1587071697,-410.645,-613.281,-262.695,-411.133,0,0
1587071697,-354.492,302.246,-207.52,-343.75,0,0
1587071697,-373.047,87.402,-247.07,-218.262,0,0
1587071697,-449.219,-320.312,-208.496,-285.156,0,0
1587071697,-429.199,-27.344,-170.41,-429.199,0,0
1587071697,-337.402,373.047,-185.059,-387.207,0,0
1587071697,-325.684,260.742,-189.453,-235.352,0,0
1587071697,-433.594,-194.336,-184.57,-253.906,0,0
1587071697,-467.285,-198.242,-176.27,-402.832,0,0
1587071697,-361.328,-26.855,-159.18,-396.973,0,0
1587071697,-307.129,-155.273,-114.746,-267.09,0,0
1587071697,-398.926,-503.906,-86.426,-281.738,0,0
1587071697,-464.844,-326.66,-60.547,-397.949,0,0
1587071697,-393.555,254.883,-34.18,-425.781,0,0
1587071697,-312.988,219.727,-67.871,-321.289,0,0
1587071697,-372.07,-148.438,-103.516,-264.648,0,0
1587071697,-456.055,-228.516,-86.426,-339.355,0,0
1587071697,-429.199,-54.688,-80.566,-412.109,0,0
1587071697,-390.625,-64.453,-98.145,-379.395,0,0
1587071697,-422.852,-482.422,-70.801,-296.387,0,0
1587071697,-499.023,-361.816,-52.734,-363.77,0,0
1587071697,-473.145,-278.32,-61.035,-438.965,0,0
1587071697,-356.445,-517.09,-66.895,-375.977,0,0
1587071697,-360.352,-554.688,-62.988,-277.832,0,0
1587071697,-475.586,-53.711,-21.973,-322.266,0,0
1587071697,-492.676,-52.734,-43.945,-429.199,0,0
1587071697,-407.715,-72.266,-47.363,-445.312,0,0
1587071697,-345.703,234.863,-34.18,-330.078,0,0
1587071697,-438.965,292.48,-54.688,-306.641,0,0
1587071697,-506.836,-173.34,-65.918,-415.039,0,0
1587071697,-426.27,-169.922,-12.695,-453.125,0,0
1587071697,-357.422,226.562,0,-343.75,0,0
1587071697,-387.207,-64.941,-35.156,-264.648,0,0
1587071697,-466.309,-543.945,-59.082,-358.887,0,0
1587071697,-438.477,-834.961,-41.016,-435.547,0,0
1587071697,-351.562,-340.82,7.812,-368.652,0,0
1587071697,-395.996,377.93,-6.836,-271.484,0,0
1587071697,-501.465,-62.988,-85.449,-314.453,0,0
1587071697,-481.445,-555.176,-93.262,-422.363,0,0
1587071697,-375,184.57,-17.578,-394.531,0,0
1587071697,-365.723,625,-45.41,-269.043,0,0
1587071697,-460.449,-209.961,-108.887,-281.738,0,0
1587071697,-484.375,-757.812,-70.801,-397.461,0,0
1587071697,-411.621,65.43,-4.883,-420.41,0,0
1587071697,-345.703,543.945,-30.762,-288.574,0,0
1587071697,-413.086,-285.156,-84.473,-238.77,0,0
1587071697,-480.957,-960.938,-56.641,-349.121,0,0
1587071697,-432.617,-440.43,-6.348,-440.43,0,0
1587071697,-371.094,318.848,-8.789,-341.797,0,0
1587071697,-399.902,-233.887,-58.105,-213.379,0,0
1587071697,-471.68,-805.664,-44.922,-314.941,0,0
1587071697,-451.66,-80.566,16.113,-431.641,0,0
1587071697,-352.539,357.91,-6.836,-338.867,0,0
1587071697,-364.258,192.383,-31.738,-243.652,0,0
1587071697,-485.84,-24.902,-15.137,-300.293,0,0
1587071697,-504.395,90.82,-32.715,-418.457,0,0
1587071697,-420.898,314.941,-45.41,-421.387,0,0
1587071697,-405.762,140.625,-53.711,-303.223,0,0
1587071697,-510.254,-236.816,-83.008,-306.641,0,0
1587071697,-558.105,-306.152,-81.055,-423.34,0,0
1587071697,-478.516,-120.605,-78.125,-450.684,0,0
1587071697,-446.777,-362.793,-87.891,-340.82,0,0
1587071697,-548.828,-245.117,-50.781,-353.516,0,0
1587071697,-636.719,101.074,-35.156,-476.074,0,0
1587071697,-595.215,-20.02,-34.18,-536.133,0,0
1587071697,-541.504,225.098,-18.555,-489.258,0,0
1587071697,-627.93,511.23,-10.254,-454.59,0,0
1587071697,-712.891,255.371,-16.113,-522.949,0,0
1587071697,-686.035,-103.027,2.441,-606.934,0,0
1587071697,-609.863,-119.629,-29.785,-541.504,0,0
1587071697,-599.121,173.828,-85.449,-404.785,0,0
1587071697,-666.992,270.02,-68.359,-415.527,0,0
1587071697,-652.344,-420.41,-85.938,-504.883,0,0
1587071697,-555.664,-537.109,-50.293,-516.113,0,0
1587071697,-529.297,482.422,3.418,-400.391,0,0
1587071697,-578.125,286.621,-60.547,-330.078,0,0
1587071697,-597.168,-354.004,-67.871,-408.203,0,0
1587071697,-519.531,-47.363,-11.23,-438.965,0,0
1587071697,-426.758,541.992,-1.465,-324.707,0,0
1587071697,-437.5,321.289,-33.691,-233.398,0,0
1587071697,-494.629,-282.227,-56.641,-282.715,0,0
1587071697,-429.688,-282.715,-31.25,-331.055,0,0
1587071697,-321.777,157.715,-2.441,-225.098,0,0
1587071697,-334.473,89.844,-42.969,-139.648,0,0
1587071697,-397.949,-333.984,-47.363,-177.734,0,0
1587071697,-378.906,55.176,12.695,-250.977,0,0
1587071697,-287.109,500,0,-202.637,0,0
1587071697,-255.371,296.387,-35.645,-56.152,0,0
1587071697,-338.379,-555.176,-58.594,-75.684,0,0
1587071697,-365.723,-418.945,-16.113,-229.98,0,0
1587071697,-275.879,506.836,5.859,-193.848,0,0
1587071697,-230.957,354.98,-18.555,-54.688,0,0
1587071697,-287.598,-63.965,-36.133,-63.477,0,0
1587071697,-334.473,-239.258,-45.41,-146.484,0,0
1587071697,-267.09,37.109,-28.32,-179.199,0,0
1587071697,-173.34,-3.906,-52.246,-70.801,0,0
1587071697,-237.305,-333.008,-41.016,-5.371,0,0
1587071697,-350.098,199.219,11.719,-117.676,0,0
1587071697,-312.988,357.422,-10.742,-178.223,0,0
1587071697,-226.562,358.398,-10.742,-100.098,0,0
1587071697,-248.047,379.883,-26.367,-18.555,0,0
1587071697,-335.938,251.465,-54.688,-77.637,0,0
1587071697,-321.289,67.871,-38.086,-165.527,0,0
1587071697,-236.816,196.289,-5.859,-149.902,0,0
1587071697,-234.863,483.887,-17.578,-56.641,0,0
1587071697,-325.684,50.293,-61.035,-50.293,0,0
1587071697,-349.121,-448.73,-45.898,-159.668,0,0
1587071697,-244.141,-527.344,-23.438,-167.48,0,0
1587071697,-206.055,-33.203,-15.137,-59.082,0,0
1587071697,-297.363,282.715,-40.039,-34.668,0,0
1587071697,-323.73,-319.824,-74.219,-102.051,0,0
1587071697,-242.676,-817.383,-45.41,-174.316,0,0
1587071697,-199.707,53.711,23.438,-111.816,0,0
1587071697,-249.512,541.016,-18.066,-18.555,0,0
1587071697,-320.312,-143.066,-72.266,-97.656,0,0
1587071697,-292.48,-227.539,-32.715,-197.266,0,0
1587071697,-218.262,315.43,9.766,-148.438,0,0
1587071697,-230.469,293.457,-7.812,-32.715,0,0
1587071697,-288.574,-581.543,-43.457,-67.871,0,0
1587071697,-286.133,-677.246,3.418,-171.387,0,0
1587071697,-236.328,456.543,60.059,-172.363,0,0
1587071697,-216.309,598.145,-1.465,-62.012,0,0
1587071697,-316.406,-72.754,-31.25,-62.5,0,0
1587071697,-368.164,-112.305,7.812,-198.242,0,0
1587071697,-275.391,346.68,22.949,-201.172,0,0
1587071697,-201.172,423.828,-8.301,-41.016,0,0
1587071697,-250,-19.531,-24.902,-0.977,0,0
1587071697,-320.312,-191.406,-23.438,-127.441,0,0
1587071697,-277.832,-9.766,-27.832,-208.496,0,0
1587071697,-211.914,149.902,-19.531,-123.047,0,0
1587071697,-236.328,-211.426,-40.039,-34.18,0,0
1587071697,-308.594,-544.922,-26.367,-103.516,0,0
1587071697,-317.871,-171.387,6.348,-211.914,0,0
1587071697,-223.145,-43.457,-25.391,-167.969,0,0
1587071697,-207.031,-228.516,-59.082,-32.227,0,0
1587071697,-317.383,-227.539,-61.035,-57.129,0,0
1587071697,-331.543,-323.73,-59.082,-180.176,0,0
1587071697,-226.562,-327.637,-60.547,-146.973,0,0
1587071697,-200.195,-573.242,-8.789,-8.301,0,0
1587071697,-267.09,-254.883,43.945,-37.109,0,0
1587071697,-288.574,-104.492,24.414,-138.672,0,0
1587071697,-244.629,-588.379,27.832,-150.391,0,0
1587071697,-223.633,-325.195,42.969,-48.828,0,0
1587071697,-303.711,145.02,16.602,-8.789,0,0
1587071697,-347.656,101.562,-11.23,-122.559,0,0
1587071697,-270.02,-520.996,-43.457,-147.461,0,0
1587071697,-209.473,-754.395,-16.602,-91.797,0,0
1587071697,-260.254,85.449,33.691,-56.152,0,0
1587071697,-303.223,22.461,-21.484,-82.031,0,0
1587071697,-278.809,-467.773,-10.742,-178.223,0,0
1587071697,-206.543,-71.289,23.438,-145.508,0,0
1587071697,-208.496,137.695,-6.348,-23.926,0,0
1587071697,-284.668,-365.723,-21.484,-43.945,0,0
1587071697,-298.828,-669.434,-7.324,-158.203,0,0
1587071697,-230.957,-459.473,10.742,-187.5,0,0
1587071697,-191.406,-30.762,8.789,-70.312,0,0
1587071697,-264.16,-116.211,-25.879,-50.293,0,0
1587071697,-312.988,-730.469,-43.945,-170.898,0,0
1587071697,-258.789,-302.246,5.859,-229.98,0,0
1587071697,-181.152,513.184,8.789,-129.883,0,0
1587071697,-235.84,102.051,-30.762,-37.109,0,0
1587071697,-312.012,-344.238,-38.086,-124.023,0,0
1587071697,-273.926,43.945,-20.508,-223.633,0,0
1587071697,-194.336,395.02,-37.109,-153.809,0,0
1587071697,-186.523,134.766,-67.871,-36.621,0,0
1587071697,-259.766,-488.281,-69.824,-79.59,0,0
1587071697,-264.16,-514.16,-33.203,-212.402,0,0
1587071697,-185.547,-1.465,-30.273,-164.551,0,0
1587071697,-155.762,-286.133,-88.867,-20.02,0,0
1587071697,-237.793,-724.121,-81.055,-39.062,0,0
1587071697,-292.48,-118.652,-24.414,-172.852,0,0
1587071697,-211.426,201.66,-33.203,-177.246,0,0
1587071697,-152.832,293.945,-33.691,-64.453,0,0
1587071697,-221.191,145.508,-29.297,-34.668,0,0
1587071697,-287.598,30.273,-14.648,-145.508,0,0
1587071697,-223.633,132.324,7.324,-207.031,0,0
1587071697,-153.809,185.059,-8.301,-84.961,0,0
1587071697,-210.449,-48.34,-57.129,-16.602,0,0
1587071697,-278.809,-410.645,-83.984,-104.492,0,0
1587071697,-230.957,-345.703,-81.055,-193.848,0,0
1587071697,-156.738,-281.738,-95.703,-104.492,0,0
1587071697,-207.031,-186.035,-132.324,-39.551,0,0
1587071697,-290.039,89.355,-174.805,-139.648,0,0
1587071697,-251.953,-109.375,-237.305,-213.867,0,0
1587071697,-179.688,-189.453,-266.113,-159.668,0,0
1587071697,-203.125,261.23,-265.137,-54.688,0,0
1587071697,-273.438,180.176,-297.363,-57.129,0,0
1587071697,-276.367,-279.785,-307.129,-164.551,0,0
1587071697,-184.082,-199.219,-285.645,-193.848,0,0
1587071697,-134.766,14.16,-282.227,-63.477,0,0
1587071697,-203.125,-303.223,-292.969,-22.461,0,0
1587071697,-273.438,-827.637,-325.684,-129.883,0,0
1587071697,-217.773,-729.004,-282.715,-198.242,0,0
1587071697,-146.484,99.121,-248.047,-134.277,0,0
1587071697,-189.941,-126.953,-312.012,-43.457,0,0
1587071697,-262.207,-871.582,-317.871,-90.82,0,0
1587071697,-246.094,-880.859,-263.184,-184.57,0,0
1587071697,-150.879,-129.883,-209.961,-143.555,0,0
1587071697,-132.324,-74.707,-234.375,-21.973,0,0
1587071697,-227.539,-702.148,-264.648,-51.27,0,0
1587071697,-247.559,-718.75,-265.625,-172.852,0,0
1587071697,-154.785,-615.723,-253.418,-150.879,0,0
1587071697,-123.047,-677.734,-235.84,-14.16,0,0
1587071697,-199.707,-955.078,-252.441,-15.625,0,0
1587071697,-256.348,-954.102,-189.941,-155.273,0,0
1587071697,-207.031,-570.801,-145.508,-193.848,0,0
1587071697,-125.488,-612.305,-175.781,-73.242,0,0
1587071697,-177.734,-934.082,-177.246,-28.809,0,0
1587071697,-261.719,-951.66,-161.133,-150.879,0,0
1587071697,-201.66,-806.152,-157.715,-229.492,0,0
1587071697,-114.746,-808.105,-170.898,-139.16,0,0
1587071697,-158.691,-1000,-177.734,-20.02,0,0
1587071697,-239.258,-994.629,-155.762,-110.84,0,0
1587071697,-211.426,-987.305,-139.16,-223.145,0,0
1587071697,-120.605,-1000,-142.09,-150.879,0,0
1587071697,-142.578,-927.734,-112.793,-54.688,0,0
1587071697,-260.254,-840.332,-80.566,-100.586,0,0
1587071697,-266.602,-822.754,-102.539,-207.031,0,0
1587071697,-156.738,-911.621,-109.863,-184.082,0,0
1587071697,-128.906,-762.207,-83.984,-59.082,0,0
1587071697,-213.379,-689.453,-80.566,-44.434,0,0
1587071697,-258.301,-1000,-115.723,-170.898,0,0
1587071697,-201.172,-981.445,-100.586,-222.168,0,0
1587071697,-134.766,-697.266,-76.66,-106.934,0,0
1587071697,-179.199,-729.004,-108.887,-53.711,0,0
1587071697,-240.234,-1000,-119.141,-128.906,0,0
1587071697,-189.453,-1000,-82.031,-172.363,0,0
1587071697,-119.141,-925.781,-21.484,-93.75,0,0
1587071697,-157.227,-878.906,-14.16,-2.441,0,0
1587071697,-229.98,-963.867,-54.199,-96.68,0,0
1587071697,-217.773,-1000,-45.41,-207.031,0,0
1587071697,-149.902,-769.531,-13.672,-171.875,0,0
1587071697,-132.324,-612.793,-15.137,-65.918,0,0
1587071697,-207.031,-875.488,-68.848,-61.523,0,0
1587071697,-237.793,-1000,-122.559,-172.852,0,0
1587071697,-166.992,-805.176,-104.004,-205.566,0,0
1587071697,-127.441,-660.156,-100.098,-86.914,0,0
1587071697,-178.711,-918.945,-140.137,-22.461,0,0
1587071697,-235.84,-1000,-108.398,-127.441,0,0
1587071697,-182.129,-913.086,-55.176,-204.59,0,0
1587071697,-104.004,-824.219,-66.406,-102.539,0,0
1587071697,-160.645,-966.309,-101.074,-31.738,0,0
1587071697,-250.977,-1000,-87.891,-120.117,0,0
1587071697,-208.008,-970.703,-61.035,-189.941,0,0
1587071697,-104.492,-840.82,-48.828,-106.445,0,0
1587071697,-119.629,-909.668,-39.551,-9.277,0,0
1587071697,-207.031,-1000,-32.227,-64.453,0,0
1587071697,-196.777,-985.84,-25.391,-179.688,0,0
1587071697,-110.84,-981.445,-29.297,-145.996,0,0
1587071697,-78.613,-998.535,-52.246,-22.949,0,0
1587071697,-156.25,-1000,-50.781,-45.898,0,0
1587071698,-185.059,-983.398,-6.836,-140.625,0,0
1587071698,-112.793,-970.215,2.441,-146.973,0,0
1587071698,-65.918,-996.094,-12.207,-25.391,0,0
1587071698,-154.297,-988.77,27.344,-23.438,0,0
1587071698,-224.121,-988.281,-10.254,-136.23,0,0
1587071698,-143.066,-1000,-67.383,-151.367,0,0
1587071698,-67.871,-863.77,-29.297,-67.871,0,0
1587071698,-127.93,-789.062,2.441,-8.301,0,0
1587071698,-199.219,-1000,-11.719,-69.824,0,0
1587071698,-153.32,-1000,-6.836,-161.621,0,0
1587071698,-87.891,-996.094,19.043,-115.723,0,0
1587071698,-117.676,-977.539,41.016,-23.438,0,0
1587071698,-195.312,-968.75,31.738,-83.496,0,0
1587071698,-188.477,-1000,15.137,-163.086,0,0
1587071698,-92.285,-917.969,78.613,-154.785,0,0
1587071698,-75.684,-665.039,118.652,-68.359,0,0
1587071698,-146.484,-810.547,55.176,-50.781,0,0
1587071698,-182.617,-1000,41.016,-184.57,0,0
1587071698,-113.77,-914.062,85.938,-216.309,0,0
1587071698,-36.621,-735.84,104.492,-78.613,0,0
1587071698,-94.727,-891.602,73.73,-24.902,0,0
1587071698,-198.242,-1000,64.941,-145.508,0,0
1587071698,-142.09,-990.234,116.699,-208.496,0,0
1587071698,-58.105,-999.023,138.672,-91.797,0,0
1587071698,-116.211,-1000,110.352,-3.906,0,0
1587071698,-210.449,-996.094,109.375,-115.723,0,0
1587071698,-159.668,-1000,138.672,-228.027,0,0
1587071698,-70.312,-971.68,152.832,-170.41,0,0
1587071698,-87.402,-928.711,149.414,-32.715,0,0
1587071698,-156.25,-989.258,152.344,-20.996,0,0
1587071698,-178.711,-1000,226.074,-169.434,0,0
1587071698,-93.75,-790.527,261.23,-190.43,0,0
1587071698,-49.805,-742.676,253.418,-55.664,0,0
1587071698,-128.906,-1000,236.328,-26.367,0,0
1587071698,-171.875,-1000,223.633,-133.789,0,0
1587071698,-107.422,-987.305,249.023,-196.777,0,0
1587071698,-56.641,-993.652,233.887,-79.59,0,0
1587071698,-130.859,-989.258,217.773,-27.832,0,0
1587071698,-209.473,-978.027,218.75,-135.254,0,0
1587071698,-151.855,-980.957,211.426,-185.059,0,0
1587071698,-64.941,-926.27,251.953,-89.844,0,0
1587071698,-95.703,-828.125,274.414,-16.113,0,0
1587071698,-187.012,-914.062,227.539,-91.797,0,0
1587071698,-152.344,-1000,206.543,-174.316,0,0
1587071698,-42.48,-917.969,241.699,-122.07,0,0
1587071698,-54.199,-769.043,252.441,0.977,0,0
1587071698,-122.559,-932.617,228.027,-3.906,0,0
1587071698,-133.301,-1000,238.77,-146.484,0,0
1587071698,-96.191,-958.984,266.602,-179.688,0,0
1587071698,-57.617,-919.922,268.555,-60.059,0,0
1587071698,-121.582,-974.609,234.863,-59.57,0,0
1587071698,-177.734,-1000,201.66,-151.855,0,0
1587071698,-99.121,-869.629,216.309,-185.547,0,0
1587071698,-55.664,-451.66,227.539,-111.816,0,0
1587071698,-126.953,-397.949,185.059,-51.27,0,0
1587071698,-193.359,-812.5,134.277,-112.793,0,0
1587071698,-146.484,-984.863,162.598,-168.945,0,0
1587071698,-65.918,-445.312,224.121,-110.352,0,0
1587071698,-65.43,-436.035,180.176,4.395,0,0
1587071698,-119.141,-982.422,155.273,-24.902,0,0
1587071698,-121.094,-782.715,205.078,-144.531,0,0
1587071698,-44.434,-68.359,250,-136.719,0,0
1587071698,11.23,114.746,216.309,12.207,0,0
1587071698,-68.359,-464.844,190.43,22.461,0,0
1587071698,-135.742,-814.453,190.43,-89.355,0,0
1587071698,-59.57,-312.012,233.887,-104.492,0,0
1587071698,6.836,183.594,242.188,0.488,0,0
1587071698,-53.223,-282.227,204.102,49.316,0,0
1587071698,-105.469,-481.445,217.773,-71.289,0,0
1587071698,-34.18,-24.414,231.934,-159.18,0,0
1587071698,43.457,77.637,229.98,-48.34,0,0
1587071698,-20.02,-426.758,204.59,30.762,0,0
1587071698,-127.93,-614.746,211.914,-72.266,0,0
1587071698,-74.707,-66.895,238.77,-158.691,0,0
1587071698,26.367,176.27,228.516,-71.777,0,0
1587071698,3.906,0.977,211.914,36.621,0,0
1587071698,-99.609,-14.16,212.891,-25.879,0,0
1587071698,-101.562,78.613,236.328,-144.531,0,0
1587071698,10.254,-20.02,244.141,-113.281,0,0
1587071698,39.062,-365.723,245.605,40.039,0,0
1587071698,-75.195,-220.215,260.742,14.16,0,0
1587071698,-111.816,27.344,246.094,-117.188,0,0
1587071698,-5.371,-331.055,210.449,-111.816,0,0
1587071698,33.203,-701.172,216.797,19.531,0,0
1587071698,-42.969,-115.723,235.352,48.34,0,0
1587071698,-101.074,217.773,203.613,-35.156,0,0
1587071698,-54.688,-384.277,185.547,-93.75,0,0
1587071698,28.32,-585.938,223.633,-1.953,0,0
1587071698,-13.184,273.438,254.883,69.336,0,0
1587071698,-93.75,277.832,195.801,20.996,0,0
1587071698,-75.684,-357.422,195.312,-79.59,0,0
1587071698,32.227,-31.25,239.258,-63.965,0,0
1587071698,24.902,658.691,222.656,32.715,0,0
1587071698,-56.641,401.855,167.48,20.02,0,0
1587071698,-30.762,-645.508,125.488,-63.965,0,0
1587071698,38.086,-784.18,166.016,-57.617,0,0
1587071698,52.734,-133.789,198.242,78.613,0,0
1587071698,-20.508,-334.961,173.34,98.633,0,0
1587071698,-66.406,-924.316,151.855,7.812,0,0
1587071698,-18.066,-677.246,202.637,-14.16,0,0
1587071698,7.812,229.492,226.074,81.543,0,0
1587071698,-48.828,-67.383,177.734,175.293,0,0
1587071698,-100.586,-555.664,170.41,123.047,0,0
1587071698,-31.738,-213.867,173.34,17.578,0,0
1587071698,49.805,148.926,146.484,68.848,0,0
1587071698,20.508,-118.652,104.492,159.668,0,0
1587071698,-49.316,-840.82,71.777,49.805,0,0
1587071698,-55.176,-750.977,92.285,-55.176,0,0
1587071698,26.855,-84.473,125,0,0,0
1587071698,61.523,-475.098,74.707,122.559,0,0
1587071698,-43.945,-936.035,83.496,66.895,0,0
1587071698,-85.449,-530.762,139.16,-100.586,0,0
1587071698,2.441,-313.965,118.652,-128.906,0,0
1587071698,55.664,-393.066,119.629,-8.789,0,0
1587071698,-8.301,-568.359,122.559,3.906,0,0
1587071698,-73.242,-701.66,107.422,-111.328,0,0
1587071698,6.836,-639.16,115.723,-135.254,0,0
1587071698,61.523,-525.391,126.953,-11.23,0,0
1587071698,-6.836,-778.32,121.094,99.121,0,0
1587071698,-60.547,-1000,113.281,12.207,0,0
1587071698,-8.301,-967.773,132.324,-70.801,0,0
1587071698,62.012,-946.289,145.508,25.391,0,0
1587071698,13.672,-740.234,142.578,74.219,0,0
1587071698,-34.668,-661.621,119.141,32.715,0,0
1587071698,21.973,-952.637,110.84,0.977,0,0
1587071698,121.582,-760.742,155.762,48.828,0,0
1587071698,109.375,-370.605,165.527,130.371,0,0
1587071698,25.391,-612.305,147.949,89.844,0,0
1587071698,20.508,-931.152,164.062,11.719,0,0
1587071698,79.102,-725.098,176.758,11.719,0,0
1587071698,112.793,-652.344,172.363,134.277,0,0
1587071698,68.848,-940.918,153.809,165.527,0,0
1587071698,24.414,-1000,97.168,39.062,0,0
1587071698,44.922,-923.34,102.539,-55.664,0,0
1587071698,111.328,-522.461,130.859,43.945,0,0
1587071698,69.824,-484.863,79.102,134.766,0,0
1587071698,-4.395,-911.133,49.805,41.016,0,0
1587071698,31.738,-781.738,74.707,-45.898,0,0
1587071698,98.633,-331.543,83.496,52.246,0,0
1587071698,106.934,-605.957,58.594,203.613,0,0
1587071698,5.371,-989.746,55.176,143.555,0,0
1587071698,-28.809,-919.434,52.246,30.273,0,0
1587071698,68.848,-933.594,39.062,29.297,0,0
1587071698,109.863,-952.637,25.391,161.621,0,0
1587071698,56.641,-999.512,6.836,196.289,0,0
1587071698,-2.441,-973.633,62.5,29.297,0,0
1587071698,63.965,-659.18,86.914,-25.879,0,0
1587071698,156.738,-607.422,54.688,106.445,0,0
1587071698,70.801,-943.359,35.645,145.02,0,0
1587071698,4.395,-981.934,47.852,20.508,0,0
1587071698,65.918,-799.805,43.945,-49.316,0,0
1587071698,130.859,-779.297,49.316,90.332,0,0
1587071698,85.938,-967.285,58.105,188.477,0,0
1587071698,14.648,-993.164,11.23,104.492,0,0
1587071698,50.293,-988.77,-7.324,19.531,0,0
1587071698,104.004,-1000,-17.09,52.246,0,0
1587071698,73.242,-948.73,-29.785,130.371,0,0
1587071698,3.906,-824.219,-19.043,64.941,0,0
1587071698,36.133,-886.719,-24.902,-0.488,0,0
1587071698,99.121,-938.477,6.348,39.551,0,0
1587071698,79.102,-697.754,16.602,121.094,0,0
1587071698,-29.297,-688.477,-3.906,98.145,0,0
1587071698,-23.438,-966.309,2.441,6.348,0,0
1587071698,70.801,-940.43,40.039,-35.645,0,0
1587071698,81.543,-561.035,74.219,37.598,0,0
1587071698,-11.719,-663.574,41.992,113.77,0,0
1587071698,-62.988,-1000,26.367,7.812,0,0
1587071698,8.789,-1000,67.383,-70.312,0,0
1587071698,67.871,-833.496,92.773,25.879,0,0
1587071698,26.367,-783.691,62.988,100.586,0,0
1587071698,-24.902,-1000,22.461,60.547,0,0
1587071698,-4.395,-1000,25.391,-15.137,0,0
1587071698,54.199,-660.156,37.109,52.246,0,0
1587071698,54.199,-494.629,102.051,173.828,0,0
1587071698,-5.859,-899.414,236.328,165.039,0,0
1587071698,-31.25,-974.121,304.199,66.895,0,0
1587071698,33.691,-643.066,302.246,40.039,0,0
1587071698,66.895,-571.289,267.09,155.273,0,0
1587071698,0.488,-906.25,223.145,217.285,0,0
1587071698,-22.461,-1000,237.793,99.121,0,0
1587071698,51.27,-773.926,266.113,41.504,0,0
1587071698,111.328,-469.727,231.445,174.805,0,0
1587071698,36.621,-688.965,192.383,247.559,0,0
1587071698,-23.926,-980.957,164.551,153.32,0,0
1587071698,30.762,-958.984,170.898,97.168,0,0
1587071698,98.633,-716.797,201.66,192.383,0,0
1587071698,83.984,-719.238,199.219,318.359,0,0
1587071698,-6.348,-977.051,169.922,277.344,0,0
1587071698,-19.531,-909.18,172.363,137.207,0,0
1587071698,84.473,-644.043,194.824,194.824,0,0
1587071698,104.98,-779.785,186.035,315.43,0,0
1587071698,-13.672,-1000,170.898,232.422,0,0
1587071698,-48.34,-920.898,213.867,135.742,0,0
1587071698,32.715,-708.496,230.469,144.531,0,0
1587071698,77.148,-851.074,214.355,226.562,0,0
1587071698,-3.906,-840.82,233.887,247.07,0,0
1587071698,-45.898,-705.078,232.422,137.695,0,0
1587071698,16.602,-816.406,237.305,97.168,0,0
1587071698,56.152,-657.715,235.352,180.664,0,0
1587071698,-3.906,-681.641,226.074,226.562,0,0
1587071698,-64.453,-912.109,234.863,147.461,0,0
1587071698,-20.02,-889.16,234.863,67.871,0,0
1587071698,60.059,-886.719,244.141,134.277,0,0
1587071698,35.645,-590.332,264.648,274.414,0,0
1587071698,-56.152,-495.117,281.738,254.883,0,0
1587071698,-34.18,-873.535,278.809,179.688,0,0
1587071698,46.875,-788.086,312.5,187.988,0,0
1587071698,48.34,-147.461,349.609,247.07,0,0
1587071698,-17.578,-364.258,311.035,276.367,0,0
1587071698,-42.969,-838.379,328.613,144.043,0,0
1587071698,21.484,-424.316,379.395,93.262,0,0
1587071698,66.895,107.91,376.953,188.965,0,0
1587071698,-0.977,-136.719,326.172,204.59,0,0
1587071698,-33.203,-767.09,329.102,131.348,0,0
1587071698,12.207,-794.434,408.691,77.148,0,0
1587071698,74.219,-397.949,438.477,141.113,0,0
1587071698,48.34,-450.195,420.898,208.984,0,0
1587071698,-24.414,-821.289,427.246,145.508,0,0
1587071698,-4.883,-508.789,483.398,62.988,0,0
1587071698,71.289,437.012,534.18,114.746,0,0
1587071698,84.473,395.508,513.672,208.008,0,0
1587071698,-12.207,-292.969,501.465,145.508,0,0
1587071698,-34.668,52.734,574.707,30.762,0,0
1587071698,48.828,564.453,619.141,52.246,0,0
1587071698,82.031,459.473,610.352,165.527,0,0
1587071698,34.18,150.391,570.312,153.32,0,0
1587071698,-24.902,-19.531,532.227,34.18,0,0
1587071698,55.664,132.324,532.715,1.953,0,0
1587071698,124.512,-63.965,515.137,96.68,0,0
1587071698,41.504,-404.785,500.488,141.113,0,0
1587071698,-26.367,171.387,508.789,-19.531,0,0
1587071698,22.461,619.141,509.766,-66.895,0,0
1587071698,108.398,651.855,534.18,53.223,0,0
