timestamps,TP9,AF7,AF8,TP10,Right AUX,Marker
1586464766,-201.66,-295.41,-257.324,13.184,0,0
1586464766,-56.641,-98.633,-178.223,-287.598,0,0
1586464766,167.969,285.156,51.758,-118.164,0,0
1586464766,72.266,101.074,-29.297,217.773,0,0
1586464766,-175.781,-330.566,-254.395,114.746,0,0
1586464766,-126.953,-338.379,-265.625,-227.539,0,0
1586464766,116.699,-31.25,-81.055,-221.191,0,0
1586464766,117.676,-156.738,-110.352,147.461,0,0
1586464766,-148.438,-684.57,-378.418,187.988,0,0
1586464766,-227.051,-283.691,-231.934,-178.223,0,0
1586464766,27.832,142.578,-36.621,-301.758,0,0
1586464766,143.555,187.5,86.426,30.762,0,0
1586464766,-109.863,86.426,27.832,193.848,0,0
1586464766,-255.859,-23.926,-82.52,-78.613,0,0
1586464766,-31.25,-175.293,-221.68,-296.875,0,0
1586464766,152.344,-139.16,-186.035,-54.688,0,0
1586464766,-46.387,63.965,0,205.566,0,0
1586464766,-253.418,-233.398,-208.496,18.555,0,0
1586464766,-131.836,-314.453,-330.078,-298.34,0,0
1586464766,108.887,-486.328,-355.957,-158.203,0,0
1586464766,21.484,-303.711,-193.359,163.086,0,0
1586464766,-239.258,237.793,-73.242,56.641,0,0
1586464766,-198.242,-144.043,-386.719,-260.254,0,0
1586464766,12.695,72.266,-207.031,-321.777,0,0
1586464766,10.742,696.289,119.629,-10.254,0,0
1586464766,-259.766,663.086,68.848,61.523,0,0
1586464766,-329.102,108.398,-271.484,-259.277,0,0
1586464766,-107.422,173.828,-204.59,-434.57,0,0
1586464766,-17.09,693.359,108.887,-157.715,0,0
1586464766,-248.535,422.363,-127.93,22.461,0,0
1586464766,-391.113,-340.82,-478.027,-218.75,0,0
1586464766,-207.52,-296.875,-363.281,-462.891,0,0
1586464766,-42.969,639.648,92.285,-287.109,0,0
1586464766,-204.102,856.934,130.371,-8.789,0,0
1586464766,-408.691,-201.66,-368.652,-130.371,0,0
1586464766,-288.574,-647.949,-471.191,-432.617,0,0
1586464766,-62.012,290.039,-32.715,-367.188,0,0
1586464766,-123.047,378.906,20.996,-8.301,0,0
1586464766,-375.488,-151.855,-249.512,-21.484,0,0
1586464766,-333.984,-228.516,-305.664,-349.609,0,0
1586464766,-54.199,218.262,-52.246,-397.461,0,0
1586464766,-4.883,212.891,-39.062,-37.109,0,0
1586464766,-255.371,-515.625,-308.105,86.914,0,0
1586464766,-348.145,-501.953,-226.074,-217.773,0,0
1586464766,-102.539,216.309,65.918,-398.438,0,0
1586464766,75.195,322.754,67.383,-72.266,0,0
1586464766,-101.562,22.949,-41.992,181.152,0,0
1586464766,-251.953,-135.254,-46.875,-52.246,0,0
1586464766,-85.938,28.32,58.105,-326.66,0,0
1586464766,144.043,4.883,24.902,-111.816,0,0
1586464766,25.879,-81.543,26.367,207.52,0,0
1586464766,-218.75,-245.117,-124.512,79.102,0,0
1586464766,-104.492,-534.668,-317.871,-219.238,0,0
1586464766,166.992,-720.215,-375,-166.504,0,0
1586464766,136.719,-657.715,-198.242,188.477,0,0
1586464766,-139.16,-159.18,83.008,156.738,0,0
1586464766,-148.438,-127.93,5.371,-179.688,0,0
1586464766,119.141,-187.012,-35.156,-237.305,0,0
1586464766,203.613,86.914,52.734,101.074,0,0
1586464766,-54.688,173.828,116.211,222.168,0,0
1586464766,-159.18,-167.969,-46.387,-56.152,0,0
1586464766,62.988,-287.109,-167.969,-247.07,0,0
1586464766,208.496,-132.812,-40.527,21.484,0,0
1586464766,18.555,5.859,100.586,275.391,0,0
1586464766,-174.805,-175.781,-86.426,64.453,0,0
1586464766,-8.789,-569.824,-309.57,-207.52,0,0
1586464766,219.727,-398.926,-169.922,-44.434,0,0
1586464766,90.82,-18.555,83.984,258.789,0,0
1586464766,-160.645,-196.289,-120.117,158.691,0,0
1586464766,-82.52,-744.141,-397.461,-160.645,0,0
1586464766,173.828,-320.312,-41.016,-153.809,0,0
1586464766,170.41,318.848,183.594,195.801,0,0
1586464766,-92.773,-165.527,-144.531,232.91,0,0
1586464766,-121.094,-578.125,-380.371,-92.285,0,0
1586464766,117.676,-83.008,-48.828,-213.867,0,0
1586464766,193.359,403.32,178.711,99.121,0,0
1586464766,-40.527,-62.988,-103.516,258.301,0,0
1586464766,-171.387,-700.195,-396.484,-5.859,0,0
1586464766,35.156,-354.98,-151.855,-245.117,0,0
1586464766,214.844,316.406,183.594,-20.02,0,0
1586464766,45.41,-124.512,-130.371,277.832,0,0
1586464766,-171.875,-959.961,-552.246,105.469,0,0
1586464766,-46.875,-513.672,-248.535,-220.215,0,0
1586464766,189.941,143.555,34.18,-114.746,0,0
1586464766,86.914,230.469,124.512,228.516,0,0
1586464766,-168.457,-34.668,-18.555,149.414,0,0
1586464766,-104.004,-508.789,-314.453,-190.43,0,0
1586464766,148.438,-404.785,-288.086,-205.566,0,0
1586464766,135.742,0.977,-21.973,139.648,0,0
1586464766,-127.441,-270.508,-140.625,241.211,0,0
1586464766,-191.406,-384.766,-283.691,-72.266,0,0
1586464766,35.645,-29.297,-93.75,-250,0,0
1586464766,164.551,-365.723,-170.41,66.406,0,0
1586464766,-69.824,-369.629,-80.566,272.949,0,0
1586464766,-245.605,76.66,50.293,-21.973,0,0
1586464767,-42.48,-76.172,-87.402,-279.785,0,0
1586464767,167.969,-35.645,-92.285,-39.062,0,0
1586464767,-1.465,229.492,84.473,236.816,0,0
1586464767,-231.445,54.199,-73.73,69.824,0,0
1586464767,-81.543,-339.355,-331.055,-232.91,0,0
1586464767,145.508,-218.262,-194.336,-128.906,0,0
1586464767,56.641,-32.715,-22.461,216.797,0,0
1586464767,-192.871,-182.129,-200.684,164.551,0,0
1586464767,-166.992,-617.188,-446.289,-151.855,0,0
1586464767,103.027,-698.73,-354.004,-202.148,0,0
1586464767,117.188,243.652,108.398,103.027,0,0
1586464767,-131.348,329.102,42.48,199.219,0,0
1586464767,-204.59,-270.508,-249.512,-97.656,0,0
1586464767,40.039,-44.434,-59.57,-266.602,0,0
1586464767,192.871,563.965,177.734,35.156,0,0
1586464767,-24.902,131.348,-77.148,237.793,0,0
1586464767,-213.379,-601.562,-388.672,-10.742,0,0
1586464767,-57.617,-359.375,-222.168,-282.227,0,0
1586464767,149.414,0,-51.758,-100.586,0,0
1586464767,38.574,25.879,-21.484,205.078,0,0
1586464767,-187.5,-557.129,-292.969,95.215,0,0
1586464767,-132.324,-497.07,-222.168,-233.887,0,0
1586464767,105.957,443.848,177.734,-207.52,0,0
1586464767,94.727,436.035,79.59,163.574,0,0
1586464767,-162.109,-98.633,-217.285,167.969,0,0
1586464767,-174.805,-135.742,-214.844,-174.805,0,0
1586464767,84.961,289.062,51.27,-261.719,0,0
1586464767,149.902,298.34,60.547,71.777,0,0
1586464767,-104.492,-7.812,-33.691,198.242,0,0
1586464767,-211.426,-66.895,-59.082,-79.59,0,0
1586464767,26.855,-79.102,-125.488,-279.785,0,0
1586464767,190.43,-237.793,-205.078,-5.859,0,0
1586464767,-16.602,-496.582,-270.508,261.23,0,0
1586464767,-216.309,-91.797,-11.719,17.578,0,0
1586464767,-56.152,188.965,59.57,-287.598,0,0
1586464767,161.133,106.445,-47.363,-118.652,0,0
1586464767,56.641,63.477,-44.922,211.426,0,0
1586464767,-195.801,134.277,42.48,114.258,0,0
1586464767,-124.512,-28.32,-113.281,-192.871,0,0
1586464767,144.043,-229.98,-265.625,-178.711,0,0
1586464767,113.281,-77.148,-64.941,144.043,0,0
1586464767,-164.062,-74.219,-89.355,172.363,0,0
1586464767,-182.617,-498.535,-376.953,-147.949,0,0
1586464767,84.961,-492.676,-290.039,-267.578,0,0
1586464767,165.527,170.898,45.898,45.41,0,0
1586464767,-91.797,364.258,102.051,201.172,0,0
1586464767,-219.727,-141.113,-233.398,-76.66,0,0
1586464767,-0.977,-697.266,-390.137,-280.762,0,0
1586464767,169.922,-193.848,-11.719,-29.785,0,0
1586464767,-26.855,387.695,163.086,223.145,0,0
1586464767,-247.07,-180.176,-212.891,31.738,0,0
1586464767,-112.793,-371.582,-275.879,-258.301,0,0
1586464767,129.883,276.367,108.398,-139.16,0,0
1586464767,39.062,526.855,176.27,182.617,0,0
1586464767,-208.496,-304.688,-241.211,135.742,0,0
1586464767,-133.789,-832.031,-485.84,-166.992,0,0
1586464767,107.422,-47.852,-59.57,-211.914,0,0
1586464767,75.195,406.25,163.086,101.074,0,0
1586464767,-193.848,-302.246,-172.852,181.641,0,0
1586464767,-242.188,-678.711,-385.254,-129.395,0,0
1586464767,-13.184,21.973,-39.551,-336.914,0,0
1586464767,98.145,208.496,53.711,-38.574,0,0
1586464767,-132.324,-161.621,-158.203,169.922,0,0
1586464767,-301.758,-600.098,-382.324,-95.703,0,0
1586464767,-120.605,-412.598,-237.305,-347.168,0,0
1586464767,75.195,149.414,41.992,-127.441,0,0
1586464767,-67.383,-187.5,-174.805,170.41,0,0
1586464767,-308.594,-572.754,-366.699,-6.836,0,0
1586464767,-199.219,-217.285,-174.316,-334.473,0,0
1586464767,81.055,169.922,16.602,-224.121,0,0
1586464767,29.785,-274.414,-181.152,142.578,0,0
1586464767,-247.559,-446.289,-296.387,84.961,0,0
1586464767,-234.375,-20.996,-144.531,-258.301,0,0
1586464767,31.25,-68.848,-107.91,-290.527,0,0
1586464767,81.055,-74.219,-65.43,62.012,0,0
1586464767,-180.664,104.492,32.715,169.434,0,0
1586464767,-248.535,-214.355,-201.66,-119.629,0,0
1586464767,7.324,-360.352,-314.453,-304.199,0,0
1586464767,140.625,-164.062,-212.891,-15.625,0,0
1586464767,-75.684,-34.18,-39.062,210.449,0,0
1586464767,-252.93,3.418,-52.246,-41.992,0,0
1586464767,-61.523,-563.477,-434.57,-283.203,0,0
1586464767,145.508,-626.465,-313.965,-80.566,0,0
1586464767,-8.301,169.434,117.188,202.148,0,0
1586464767,-232.91,62.988,-38.574,84.961,0,0
1586464767,-138.672,-555.664,-298.34,-219.238,0,0
1586464767,93.75,-234.375,-61.035,-192.383,0,0
1586464767,56.152,189.453,126.465,142.578,0,0
1586464767,-189.453,-268.555,-170.898,159.18,0,0
1586464767,-187.988,-454.59,-308.105,-195.801,0,0
1586464767,54.688,-312.988,-239.258,-247.07,0,0
1586464767,124.023,-114.746,-97.656,116.699,0,0
1586464767,-103.516,-254.395,-158.203,198.73,0,0
1586464767,-205.078,-888.184,-548.34,-58.105,0,0
1586464767,12.695,-618.652,-269.531,-272.461,0,0
1586464767,171.387,390.137,188.477,-36.133,0,0
1586464767,-12.695,168.457,-8.789,229.98,0,0
1586464767,-201.172,-282.715,-190.43,0,0,0
1586464767,-47.852,-46.875,-53.223,-300.293,0,0
1586464767,162.109,401.855,173.828,-142.578,0,0
1586464767,55.664,243.652,38.086,189.941,0,0
1586464767,-172.852,-320.312,-311.523,104.492,0,0
1586464767,-113.77,-424.805,-333.496,-228.516,0,0
1586464767,134.766,-174.316,-201.66,-222.168,0,0
1586464767,141.113,-246.582,-260.742,144.043,0,0
1586464767,-139.16,-669.922,-399.902,161.133,0,0
1586464767,-212.891,-406.738,-276.855,-195.801,0,0
1586464767,36.133,-31.25,-77.637,-307.129,0,0
1586464767,136.23,101.562,15.625,13.672,0,0
1586464767,-100.586,180.176,58.594,178.223,0,0
1586464767,-242.188,9.766,-88.867,-94.238,0,0
1586464767,-47.852,-246.582,-285.645,-311.035,0,0
1586464767,129.883,-18.066,-113.281,-55.664,0,0
1586464767,-43.945,128.906,20.02,222.656,0,0
1586464767,-256.836,-302.734,-230.469,41.992,0,0
1586464767,-114.258,-470.703,-330.566,-263.672,0,0
1586464767,125.488,-621.094,-284.18,-148.438,0,0
1586464767,15.137,-214.355,-11.719,164.551,0,0
1586464767,-241.699,293.457,126.953,76.66,0,0
1586464767,-171.387,-166.992,-137.207,-220.215,0,0
1586464767,83.496,-211.426,-118.652,-231.934,0,0
1586464767,86.426,89.844,53.711,93.75,0,0
1586464767,-175.781,77.637,48.34,163.574,0,0
1586464767,-228.027,-286.133,-236.328,-134.277,0,0
1586464767,25.879,-361.328,-278.809,-273.926,0,0
1586464767,139.648,228.027,91.797,11.719,0,0
1586464767,-83.496,35.645,-95.215,216.309,0,0
1586464767,-234.863,-686.523,-476.074,-21.973,0,0
1586464767,-35.645,-832.52,-434.57,-258.789,0,0
1586464767,137.207,145.02,76.66,-75.684,0,0
1586464767,-34.668,472.168,86.426,190.918,0,0
1586464767,-246.094,-279.297,-244.141,43.457,0,0
1586464767,-125.488,-228.027,-85.449,-276.855,0,0
1586464767,111.816,396.484,133.789,-186.523,0,0
1586464767,51.27,416.016,49.316,171.387,0,0
1586464767,-202.148,-260.742,-253.906,142.09,0,0
1586464767,-181.641,-623.535,-359.863,-202.148,0,0
1586464767,65.918,-111.328,-110.84,-272.461,0,0
1586464767,117.676,179.688,60.547,67.383,0,0
1586464767,-102.051,-496.582,-255.859,203.613,0,0
1586464767,-203.613,-599.121,-348.633,-99.609,0,0
1586464767,7.324,334.473,81.055,-313.477,0,0
1586464767,161.621,531.738,122.07,-10.742,0,0
1586464767,-61.035,163.086,-9.766,231.934,0,0
1586464767,-228.516,42.48,3.418,-5.371,0,0
1586464767,-38.086,150.879,48.34,-284.18,0,0
1586464767,171.387,226.562,62.988,-105.469,0,0
1586464767,44.434,55.176,-35.156,211.914,0,0
1586464767,-193.359,-204.59,-230.469,66.406,0,0
1586464767,-112.793,-103.516,-230.469,-270.508,0,0
1586464767,154.785,-250,-293.457,-182.617,0,0
1586464767,134.766,-604.492,-412.109,177.734,0,0
1586464767,-142.09,-279.297,-207.031,143.555,0,0
1586464767,-169.922,88.379,20.02,-193.848,0,0
1586464767,86.914,20.508,-39.551,-268.066,0,0
1586464767,151.855,151.367,1.465,58.594,0,0
1586464767,-95.215,290.527,86.914,182.617,0,0
1586464767,-167.969,-74.707,-121.094,-51.758,0,0
1586464767,48.34,-132.324,-211.426,-240.723,0,0
1586464767,164.062,66.895,-50.781,-40.039,0,0
1586464767,-81.543,-6.348,-109.375,165.527,0,0
1586464767,-304.199,-69.336,-177.734,-63.477,0,0
1586464767,-152.344,-322.266,-235.84,-353.516,0,0
1586464767,43.945,-78.613,-65.918,-214.355,0,0
1586464767,-76.66,336.426,122.559,87.891,0,0
1586464767,-330.078,-91.309,-193.848,-3.418,0,0
1586464767,-270.996,-708.984,-402.832,-313.965,0,0
1586464767,-14.648,-175.781,-13.184,-323.242,0,0
1586464767,-16.113,550.781,195.312,14.648,0,0
1586464767,-263.184,100.098,-116.211,67.871,0,0
1586464767,-286.621,-293.457,-326.172,-220.215,0,0
1586464767,-11.719,106.934,-21.484,-336.914,0,0
1586464767,94.727,595.215,223.145,-15.137,0,0
1586464767,-136.719,147.461,-68.848,184.57,0,0
1586464767,-250.977,-618.652,-405.273,-81.055,0,0
1586464767,-53.711,-295.41,-168.457,-316.406,0,0
1586464767,111.328,494.629,161.133,-82.031,0,0
1586464767,-40.527,-78.613,-192.871,223.145,0,0
1586464767,-247.07,-856.934,-515.137,50.781,0,0
1586464767,-141.602,-109.375,-61.035,-295.41,0,0
1586464767,103.027,411.133,122.559,-176.758,0,0
1586464767,38.086,182.617,-36.621,182.617,0,0
1586464767,-239.258,-53.223,-139.16,99.121,0,0
1586464767,-200.684,-320.312,-280.762,-229.492,0,0
1586464767,67.871,-287.109,-276.367,-239.258,0,0
1586464767,75.195,65.43,8.789,80.566,0,0
1586464767,-179.688,-201.66,-144.043,164.062,0,0
1586464767,-244.141,-430.664,-351.074,-143.555,0,0
1586464767,-5.371,31.25,-82.52,-320.312,0,0
1586464767,134.277,-175.781,-113.281,19.043,0,0
1586464767,-96.191,-318.359,-76.66,208.496,0,0
1586464767,-255.859,33.691,20.996,-77.637,0,0
1586464767,-28.32,-136.23,-163.574,-298.34,0,0
1586464767,164.551,-30.762,-112.305,-77.637,0,0
1586464767,-9.766,259.766,95.215,201.66,0,0
1586464767,-231.445,15.625,-95.703,36.621,0,0
1586464767,-102.051,-355.957,-329.102,-266.113,0,0
1586464767,140.625,-61.035,-139.16,-179.688,0,0
1586464767,75.195,31.738,-29.297,166.992,0,0
1586464767,-183.594,-226.074,-201.172,124.512,0,0
1586464767,-153.809,-574.707,-388.184,-182.617,0,0
1586464767,93.75,-778.809,-402.344,-232.91,0,0
1586464767,108.887,118.652,44.434,57.129,0,0
1586464767,-129.883,375,96.68,167.969,0,0
1586464767,-212.891,-260.254,-252.93,-126.953,0,0
1586464767,1.465,-144.531,-126.953,-318.359,0,0
1586464767,143.555,461.426,152.832,-38.574,0,0
1586464767,-50.781,141.113,-114.258,193.848,0,0
1586464767,-221.68,-318.359,-297.363,-32.227,0,0
1586464767,-53.223,-50.781,-63.477,-307.129,0,0
1586464767,168.457,73.242,-17.578,-121.094,0,0
1586464767,30.273,-60.059,-104.004,175.781,0,0
1586464767,-208.984,-669.922,-392.578,67.871,0,0
1586464767,-118.652,-630.371,-350.098,-252.441,0,0
1586464767,115.234,237.305,35.156,-219.727,0,0
1586464767,78.613,223.145,35.156,151.367,0,0
1586464767,-174.805,-171.387,-172.363,148.926,0,0
1586464767,-195.801,-14.648,-50.781,-190.918,0,0
1586464767,45.898,360.352,141.113,-279.785,0,0
1586464767,138.672,340.82,45.898,69.336,0,0
1586464767,-107.422,-43.945,-123.535,196.289,0,0
1586464767,-227.539,-183.105,-225.586,-114.258,0,0
1586464767,14.648,-326.66,-356.445,-284.18,0,0
1586464767,169.434,-179.199,-203.125,-18.066,0,0
1586464767,-49.805,82.031,-15.137,201.66,0,0
1586464767,-245.605,-51.758,-161.621,-3.418,0,0
1586464767,-82.52,-190.43,-265.137,-282.227,0,0
1586464767,167.48,-350.586,-334.473,-105.469,0,0
1586464767,47.852,-414.062,-245.605,229.004,0,0
1586464767,-222.168,-5.371,-14.648,97.168,0,0
1586464767,-122.559,20.02,-200.684,-222.168,0,0
1586464767,133.789,-201.172,-312.988,-201.172,0,0
1586464767,102.539,-41.016,-89.355,110.352,0,0
1586464767,-161.621,114.258,-50.781,133.789,0,0
1586464767,-190.43,-314.453,-353.516,-162.109,0,0
1586464767,64.453,-666.016,-330.078,-265.625,0,0
1586464767,153.32,-43.457,49.316,51.27,0,0
1586464767,-93.75,445.801,115.234,201.172,0,0
1586464767,-221.68,-105.957,-237.793,-69.824,0,0
1586464767,-21.973,-154.785,-157.715,-289.062,0,0
1586464767,144.531,297.363,89.355,-51.758,0,0
1586464767,-43.945,318.848,97.168,212.402,0,0
1586464767,-258.789,-88.867,-128.418,19.531,0,0
1586464767,-116.699,-171.387,-265.137,-283.203,0,0
1586464767,133.789,303.711,36.621,-156.738,0,0
1586464767,48.34,381.348,84.961,187.012,0,0
1586464767,-209.961,-427.734,-377.441,144.531,0,0
1586464767,-164.062,-789.062,-551.27,-180.176,0,0
1586464767,69.824,8.789,-66.406,-258.789,0,0
1586464767,83.496,458.496,138.184,95.703,0,0
1586464767,-170.41,-15.625,-77.637,202.148,0,0
1586464767,-237.793,-307.617,-242.676,-122.559,0,0
1586464767,16.113,163.574,-16.602,-282.227,0,0
1586464767,138.184,492.676,120.117,22.949,0,0
1586464767,-97.656,-9.766,-134.277,230.469,0,0
1586464767,-254.883,-507.812,-306.641,-23.926,0,0
1586464768,-58.105,-314.941,-258.301,-290.527,0,0
1586464768,136.23,-86.914,-216.797,-69.824,0,0
1586464768,-15.137,-259.277,-238.281,222.656,0,0
1586464768,-238.281,-467.285,-325.684,62.988,0,0
1586464768,-122.07,-129.883,-198.242,-239.746,0,0
1586464768,144.043,123.047,-21.484,-147.461,0,0
1586464768,88.867,-228.516,-158.203,204.59,0,0
1586464768,-204.59,-235.84,-146.973,132.812,0,0
1586464768,-194.336,-21.484,-151.367,-218.262,0,0
1586464768,82.52,-223.633,-352.539,-243.652,0,0
1586464768,133.301,-408.203,-314.941,102.539,0,0
1586464768,-147.461,-145.996,-95.703,188.477,0,0
1586464768,-250.977,2.93,-164.551,-115.234,0,0
1586464768,-13.672,-132.324,-303.711,-284.668,0,0
1586464768,117.676,-149.414,-280.273,13.184,0,0
1586464768,-103.027,-100.586,-194.824,224.609,0,0
1586464768,-298.34,-106.934,-214.355,-38.574,0,0
1586464768,-125.977,-405.273,-385.254,-290.039,0,0
1586464768,97.656,-481.445,-233.398,-91.309,0,0
1586464768,-40.527,177.246,123.047,192.383,0,0
1586464768,-270.02,194.824,34.668,62.988,0,0
1586464768,-162.109,-461.914,-232.422,-233.398,0,0
1586464768,85.449,-221.68,-82.031,-180.176,0,0
1586464768,54.199,354.98,143.066,151.367,0,0
1586464768,-201.66,-120.605,-147.949,153.809,0,0
1586464768,-213.379,-365.234,-298.828,-184.082,0,0
1586464768,52.246,-264.648,-222.168,-266.113,0,0
1586464768,121.094,129.883,41.016,68.359,0,0
1586464768,-111.816,141.113,-6.836,209.961,0,0
1586464768,-213.379,-543.457,-348.633,-72.754,0,0
1586464768,-6.836,-420.41,-215.82,-280.762,0,0
1586464768,145.996,408.691,169.434,-15.137,0,0
1586464768,-31.738,325.195,41.992,237.793,0,0
1586464768,-213.867,-628.906,-380.371,36.621,0,0
1586464768,-66.406,-390.137,-155.273,-271.484,0,0
1586464768,162.598,456.055,171.875,-135.254,0,0
1586464768,65.918,321.289,38.574,201.172,0,0
1586464768,-187.012,-126.953,-235.84,110.84,0,0
1586464768,-131.836,-337.891,-354.492,-208.984,0,0
1586464768,114.746,79.102,-46.875,-215.332,0,0
1586464768,114.258,116.699,-50.781,133.789,0,0
1586464768,-137.695,-716.797,-449.219,190.918,0,0
1586464768,-208.984,-301.758,-145.02,-161.133,0,0
1586464768,52.246,351.562,90.332,-283.203,0,0
1586464768,191.406,184.082,1.953,71.777,0,0
1586464768,-51.27,20.02,-30.273,249.512,0,0
1586464768,-208.008,89.844,-23.926,-52.246,0,0
1586464768,12.695,-181.641,-224.609,-281.25,0,0
1586464768,208.496,-76.172,-156.25,-39.062,0,0
1586464768,28.809,207.031,20.02,225.586,0,0
1586464768,-175.293,-217.285,-223.633,46.875,0,0
1586464768,-14.16,-373.047,-334.473,-240.723,0,0
1586464768,248.535,-364.746,-236.816,-83.496,0,0
1586464768,155.762,-142.09,-76.172,266.602,0,0
1586464768,-101.074,128.418,-46.387,188.965,0,0
1586464768,-50.781,-14.16,-130.859,-129.883,0,0
1586464768,200.684,175.293,-73.242,-156.738,0,0
1586464768,212.891,545.41,126.465,180.664,0,0
1586464768,-46.875,357.91,52.734,250,0,0
1586464768,-101.074,-282.227,-333.984,-60.547,0,0
1586464768,138.672,-319.824,-295.41,-212.402,0,0
1586464768,226.074,364.746,98.145,69.336,0,0
1586464768,-14.648,117.188,-88.867,273.926,0,0
1586464768,-161.621,-670.41,-489.746,46.387,0,0
1586464768,29.785,-857.91,-504.395,-205.566,0,0
1586464768,196.777,20.996,4.883,-23.438,0,0
1586464768,33.691,403.32,93.262,249.023,0,0
1586464768,-193.848,-132.324,-178.223,91.797,0,0
1586464768,-79.59,-257.812,-295.898,-209.961,0,0
1586464768,160.645,196.777,-57.129,-145.508,0,0
1586464768,102.051,334.473,47.363,178.223,0,0
1586464768,-160.645,-298.34,-323.73,156.738,0,0
1586464768,-165.039,-319.336,-260.742,-163.574,0,0
1586464768,81.055,281.25,49.316,-222.656,0,0
1586464768,139.16,230.469,-1.465,134.766,0,0
1586464768,-107.91,-438.965,-290.039,251.953,0,0
1586464768,-208.008,-557.129,-304.199,-72.754,0,0
1586464768,19.043,225.586,79.102,-254.883,0,0
1586464768,179.688,449.707,84.961,53.711,0,0
1586464768,0.977,-437.012,-281.738,284.18,0,0
1586464768,-200.684,-481.445,-182.129,10.742,0,0
1586464768,-57.129,133.301,30.273,-289.551,0,0
1586464768,175.781,120.117,-10.254,-83.984,0,0
1586464768,33.691,49.316,-31.738,224.609,0,0
1586464768,-220.703,22.949,-19.043,80.566,0,0
1586464768,-121.094,59.57,-19.043,-245.117,0,0
1586464768,144.043,-295.41,-319.336,-173.34,0,0
1586464768,107.91,-397.461,-231.445,181.641,0,0
1586464768,-174.316,18.066,23.926,150.391,0,0
1586464768,-179.199,-200.195,-266.113,-175.293,0,0
1586464768,97.168,-542.969,-381.348,-255.859,0,0
1586464768,152.832,-111.328,-98.145,52.246,0,0
1586464768,-110.352,308.594,82.031,186.035,0,0
1586464768,-215.82,35.156,-44.922,-92.773,0,0
1586464768,4.883,-93.262,-139.648,-314.941,0,0
1586464768,166.016,-110.352,-180.664,-37.109,0,0
1586464768,-32.715,31.25,-30.762,207.031,0,0
1586464768,-225.098,-6.348,-94.727,-9.277,0,0
1586464768,-48.34,-451.172,-333.008,-270.508,0,0
1586464768,174.316,-257.324,-153.809,-113.281,0,0
1586464768,56.641,358.887,153.32,178.711,0,0
1586464768,-176.758,8.301,-153.32,82.031,0,0
1586464768,-108.398,-460.449,-353.516,-226.074,0,0
1586464768,138.184,79.102,-0.488,-240.723,0,0
1586464768,141.602,396.973,91.797,110.84,0,0
1586464768,-125.488,-250,-291.016,165.527,0,0
1586464768,-181.641,-535.645,-392.578,-167.48,0,0
1586464768,63.965,-104.98,-102.539,-297.363,0,0
1586464768,159.18,308.594,95.703,30.273,0,0
1586464768,-82.52,17.09,-159.668,204.102,0,0
1586464768,-216.797,-817.871,-537.598,-54.688,0,0
1586464768,-19.043,-444.336,-207.52,-300.293,0,0
1586464768,152.344,461.426,171.387,-80.078,0,0
1586464768,-8.301,-10.742,-103.516,222.168,0,0
1586464768,-223.633,-665.039,-421.387,36.621,0,0
1586464768,-116.699,-44.434,-45.41,-305.176,0,0
1586464768,124.512,412.109,127.93,-166.016,0,0
1586464768,62.988,115.234,-45.41,181.641,0,0
1586464768,-191.895,-226.074,-249.023,87.402,0,0
1586464768,-169.922,-309.082,-317.871,-233.887,0,0
1586464768,90.332,-262.695,-250.488,-253.906,0,0
1586464768,114.258,-62.988,-199.219,81.543,0,0
1586464768,-161.621,-355.957,-333.008,164.062,0,0
1586464768,-230.469,-591.797,-403.809,-146.484,0,0
1586464768,18.066,-186.035,-227.539,-299.805,0,0
1586464768,150.879,-354.98,-215.82,46.387,0,0
1586464768,-100.098,-291.992,-78.125,236.816,0,0
1586464768,-290.527,165.039,59.082,-65.43,0,0
1586464768,-79.102,-66.895,-141.113,-300.781,0,0
1586464768,130.859,54.199,-103.027,-77.148,0,0
1586464768,-35.156,375,110.352,200.684,0,0
1586464768,-259.277,179.199,22.949,42.969,0,0
1586464768,-146.484,-130.859,-222.168,-257.812,0,0
1586464768,96.191,-58.105,-210.449,-168.945,0,0
1586464768,42.48,107.422,22.461,168.945,0,0
1586464768,-221.68,-175.293,-158.691,127.93,0,0
1586464768,-186.523,-569.336,-381.348,-181.641,0,0
1586464768,107.422,-323.242,-233.887,-214.355,0,0
1586464768,144.531,269.043,41.016,119.141,0,0
1586464768,-158.691,258.789,58.105,196.289,0,0
1586464768,-256.836,-553.223,-421.387,-111.816,0,0
1586464768,-20.02,-643.066,-367.676,-271.973,0,0
1586464768,98.145,365.234,180.664,-18.555,0,0
1586464768,-106.934,8.789,-131.348,203.613,0,0
1586464768,-284.668,-479.98,-339.355,-17.09,0,0
1586464768,-109.375,-165.039,-134.766,-298.828,0,0
1586464768,125.977,-3.906,-74.219,-98.633,0,0
1586464768,0.488,-206.055,-238.77,216.797,0,0
1586464768,-237.793,-569.336,-348.633,67.871,0,0
1586464768,-149.902,-550.293,-291.504,-253.906,0,0
1586464768,89.844,83.008,-15.137,-192.383,0,0
1586464768,68.359,435.059,92.773,154.785,0,0
1586464768,-167.969,-417.48,-255.371,183.594,0,0
1586464768,-187.988,-523.926,-215.82,-166.504,0,0
1586464768,57.129,322.754,99.121,-282.715,0,0
1586464768,143.066,322.266,31.25,76.172,0,0
1586464768,-113.281,42.48,-84.961,214.355,0,0
1586464768,-225.098,45.898,-32.715,-95.215,0,0
1586464768,13.184,-55.664,-187.988,-294.922,0,0
1586464768,186.035,-197.266,-283.203,-5.371,0,0
1586464768,2.441,-416.992,-276.855,253.418,0,0
1586464768,-223.145,-151.855,-103.516,9.277,0,0
1586464768,-64.941,-9.766,-115.234,-300.781,0,0
1586464768,171.387,52.734,-124.023,-129.883,0,0
1586464768,52.734,32.227,-54.199,207.031,0,0
1586464768,-208.496,51.758,-0.488,89.844,0,0
1586464768,-141.602,103.027,-10.254,-229.492,0,0
1586464768,124.512,-15.625,-156.25,-192.871,0,0
1586464768,117.188,220.703,-5.371,142.578,0,0
1586464768,-148.926,261.23,57.617,167.969,0,0
1586464768,-185.059,-133.789,-226.074,-136.719,0,0
1586464768,81.543,-586.426,-373.047,-248.047,0,0
1586464768,169.922,-224.121,-108.887,63.477,0,0
1586464768,-94.238,369.141,125.488,202.637,0,0
1586464768,-222.656,-24.414,-154.297,-76.66,0,0
1586464768,-2.93,-173.34,-209.473,-291.992,0,0
1586464768,160.645,286.133,83.984,-58.594,0,0
1586464768,-18.066,489.258,117.188,204.59,0,0
1586464768,-220.703,-31.738,-176.27,36.621,0,0
1586464768,-84.961,-508.789,-413.086,-250.488,0,0
1586464768,147.949,104.004,-47.852,-151.855,0,0
1586464768,47.363,550.293,130.371,165.527,0,0
1586464768,-201.172,-322.266,-351.074,126.953,0,0
1586464768,-145.02,-736.328,-480.957,-196.777,0,0
1586464768,95.215,20.02,-59.57,-258.301,0,0
1586464768,95.215,547.852,193.848,88.379,0,0
1586464768,-137.695,-220.703,-239.746,204.59,0,0
1586464768,-195.312,-765.137,-481.445,-121.094,0,0
1586464768,13.184,107.91,13.672,-308.594,0,0
1586464768,137.207,558.594,161.133,20.02,0,0
1586464768,-71.777,334.961,5.859,224.609,0,0
1586464768,-227.051,-186.523,-262.207,-29.297,0,0
1586464768,-45.41,-108.398,-183.594,-286.621,0,0
1586464768,137.207,286.133,47.852,-75.684,0,0
1586464768,-18.555,-72.266,-162.598,219.727,0,0
1586464768,-246.582,-504.395,-380.371,39.551,0,0
1586464768,-132.812,-302.246,-264.16,-279.785,0,0
1586464768,153.32,129.883,-16.113,-164.551,0,0
1586464768,96.68,-110.84,-54.688,219.727,0,0
1586464768,-223.633,-230.957,-98.633,130.859,0,0
1586464768,-230.957,-84.473,-135.742,-261.719,0,0
1586464768,34.18,-242.188,-307.129,-314.941,0,0
1586464768,66.406,-194.336,-190.43,24.902,0,0
1586464768,-198.242,-68.848,-29.297,115.234,0,0
1586464768,-288.086,-104.004,-101.074,-186.523,0,0
1586464768,-47.363,-211.914,-217.773,-360.84,0,0
1586464768,108.887,-300.293,-261.719,-67.383,0,0
1586464768,-97.168,-38.574,1.953,146.484,0,0
1586464768,-267.09,-39.551,-101.562,-90.332,0,0
1586464768,-69.824,-648.438,-472.656,-316.406,0,0
1586464768,143.066,-613.77,-249.023,-121.582,0,0
1586464768,-0.488,240.723,162.109,148.926,0,0
1586464768,-215.332,18.555,-138.672,37.109,0,0
1586464768,-120.117,-437.012,-352.051,-265.137,0,0
1586464768,125,84.961,25.391,-226.074,0,0
1586464768,94.727,315.918,45.898,119.629,0,0
1586464768,-178.711,-188.965,-279.297,136.23,0,0
1586464768,-204.102,-317.383,-318.359,-191.406,0,0
1586464768,49.805,-217.773,-292.969,-283.691,0,0
1586464768,104.004,225.586,21.484,38.086,0,0
1586464768,-148.926,349.121,29.785,172.363,0,0
1586464768,-232.91,-539.062,-407.715,-84.473,0,0
1586464768,-16.113,-340.332,-156.738,-308.105,0,0
1586464768,134.277,545.41,177.734,-59.082,0,0
1586464768,-49.316,100.586,-96.191,208.496,0,0
1586464768,-257.324,-308.105,-289.062,-3.418,0,0
1586464768,-103.027,71.289,-24.902,-298.34,0,0
1586464768,135.742,575.195,190.918,-140.137,0,0
1586464768,25.391,369.629,43.945,183.105,0,0
1586464768,-224.609,-165.527,-257.324,77.637,0,0
1586464768,-156.738,-307.617,-335.938,-244.629,0,0
1586464768,91.309,104.98,-1.953,-235.352,0,0
1586464768,101.074,141.602,-24.414,128.418,0,0
1586464768,-147.461,-326.172,-327.637,167.48,0,0
1586464768,-187.012,-139.648,-247.559,-167.969,0,0
1586464768,64.453,211.914,-27.344,-293.945,0,0
1586464768,175.781,-111.328,-155.273,54.199,0,0
1586464768,-63.965,-547.852,-302.246,233.887,0,0
1586464768,-223.145,-9.277,8.301,-71.289,0,0
1586464768,-7.324,9.277,-91.309,-291.016,0,0
1586464768,172.363,158.691,54.199,-61.523,0,0
1586464768,-4.883,375.488,97.656,202.637,0,0
1586464768,-212.891,-184.082,-259.277,15.137,0,0
1586464768,-75.195,-397.949,-330.078,-277.344,0,0
1586464768,181.641,-482.422,-302.246,-117.188,0,0
1586464768,80.078,-206.543,-73.73,193.359,0,0
1586464768,-213.867,241.211,64.941,89.355,0,0
1586464768,-152.344,-97.168,-183.594,-221.191,0,0
1586464768,110.84,-6.836,-129.883,-242.188,0,0
1586464768,129.395,501.953,123.047,90.332,0,0
1586464768,-131.836,383.301,83.496,152.344,0,0
1586464768,-210.449,-168.457,-232.422,-135.254,0,0
1586464768,36.133,-169.922,-234.863,-278.32,0,0
1586464768,151.855,405.273,113.77,5.371,0,0
1586464768,-73.242,130.859,-106.934,220.703,0,0
1586464768,-236.816,-682.617,-473.145,-20.996,0,0
1586464769,-59.57,-508.301,-254.883,-284.18,0,0
1586464769,118.652,298.34,123.047,-66.406,0,0
1586464769,-43.457,429.199,139.648,222.168,0,0
1586464769,-260.742,-380.371,-288.574,77.637,0,0
1586464769,-159.668,-729.492,-383.301,-222.656,0,0
1586464769,71.289,147.461,97.168,-169.922,0,0
1586464769,10.742,466.797,119.141,169.922,0,0
1586464769,-250.488,-327.148,-207.031,156.738,0,0
1586464769,-237.793,-562.5,-175.293,-189.453,0,0
1586464769,7.324,173.828,94.727,-270.996,0,0
1586464769,76.172,180.176,33.203,90.82,0,0
1586464769,-155.273,-447.266,-167.48,209.473,0,0
1586464769,-256.348,-585.449,-299.316,-114.746,0,0
1586464769,-21.484,-196.777,-244.141,-304.688,0,0
1586464769,144.531,-57.617,-122.559,-0.488,0,0
1586464769,-62.988,-165.527,-115.234,220.215,0,0
1586464769,-248.535,-158.691,-85.449,-30.762,0,0
1586464769,-62.988,17.09,28.809,-295.898,0,0
1586464769,148.926,49.805,-5.859,-96.68,0,0
1586464769,-1.465,-1.953,-45.41,216.309,0,0
1586464769,-259.277,16.113,-9.277,75.195,0,0
1586464769,-156.25,-1.953,-9.766,-217.285,0,0
1586464769,116.211,-228.516,-140.137,-132.324,0,0
1586464769,24.902,-230.957,-112.305,153.32,0,0
1586464769,-316.895,-0.977,19.043,81.543,0,0
1586464769,-288.574,42.48,22.461,-232.422,0,0
1586464769,46.387,-189.941,-130.371,-222.168,0,0
1586464769,90.332,-447.266,-242.188,134.766,0,0
1586464769,-248.535,-138.672,-8.301,163.086,0,0
1586464769,-365.234,-50.293,-4.395,-129.395,0,0
1586464769,-47.852,-3.418,27.832,-242.676,0,0
1586464769,135.742,163.574,76.66,45.41,0,0
1586464769,-150.879,100.098,53.711,222.168,0,0
1586464769,-370.605,-116.211,-48.34,-23.926,0,0
1586464769,-113.281,-386.23,-232.422,-230.957,0,0
1586464769,164.551,-38.574,-28.809,-43.945,0,0
1586464769,-2.93,384.766,149.414,199.219,0,0
1586464769,-285.645,-151.367,-208.008,52.734,0,0
1586464769,-151.855,-708.496,-352.051,-203.613,0,0
1586464769,156.25,43.945,65.43,-161.133,0,0
1586464769,113.281,760.742,245.117,126.953,0,0
1586464769,-195.312,99.609,-129.395,110.352,0,0
1586464769,-188.965,-494.141,-439.941,-176.758,0,0
1586464769,150.391,-20.508,-84.473,-227.539,0,0
1586464769,247.07,699.219,265.625,73.73,0,0
1586464769,-55.664,205.566,-114.258,188.477,0,0
1586464769,-178.223,-668.457,-483.887,-77.637,0,0
1586464769,124.512,-330.566,-175.293,-235.352,0,0
1586464769,317.871,521.973,198.73,12.695,0,0
1586464769,93.75,-20.996,-168.945,235.352,0,0
1586464769,-136.719,-868.164,-553.711,24.414,0,0
1586464769,37.598,-171.387,-126.953,-249.512,0,0
1586464769,327.148,469.727,121.094,-83.008,0,0
1586464769,186.035,324.707,-18.555,210.449,0,0
1586464769,-140.625,-108.887,-270.996,76.66,0,0
1586464769,-55.176,-320.801,-340.332,-212.891,0,0
1586464769,266.602,-76.66,-173.34,-168.457,0,0
1586464769,244.141,155.273,-48.34,137.695,0,0
1586464769,-109.375,-333.984,-292.48,131.348,0,0
1586464769,-164.551,-725.586,-451.172,-174.316,0,0
1586464769,168.457,-290.039,-261.23,-244.629,0,0
1586464769,284.18,-259.766,-232.91,90.332,0,0
1586464769,-51.758,-309.082,-142.09,195.312,0,0
1586464769,-243.164,102.539,37.109,-101.562,0,0
1586464769,52.734,43.945,-66.895,-256.348,0,0
1586464769,294.922,246.094,11.23,10.742,0,0
1586464769,51.27,456.055,83.496,230.469,0,0
1586464769,-229.004,-97.168,-272.949,12.207,0,0
1586464769,-28.32,-505.371,-436.523,-239.258,0,0
1586464769,288.574,69.336,-78.613,-112.305,0,0
1586464769,166.504,263.184,28.809,198.242,0,0
1586464769,-178.711,-295.41,-284.18,100.098,0,0
1586464769,-106.445,-692.383,-445.801,-197.266,0,0
1586464769,250.488,-522.949,-230.469,-169.922,0,0
1586464769,252.441,320.312,149.414,115.723,0,0
1586464769,-104.98,307.129,18.066,144.043,0,0
1586464769,-176.27,-308.105,-286.133,-153.32,0,0
1586464769,145.02,0,-104.98,-275.391,0,0
1586464769,278.809,709.473,211.426,23.926,0,0
1586464769,-30.273,187.012,-108.887,190.918,0,0
1586464769,-265.137,-396.484,-356.934,-80.078,0,0
1586464769,-14.648,8.301,-29.785,-284.668,0,0
1586464769,245.605,375.488,126.465,-45.41,0,0
1586464769,20.996,269.531,55.176,197.266,0,0
1586464769,-264.648,-605.957,-406.25,46.387,0,0
1586464769,-121.094,-664.551,-342.285,-221.68,0,0
1586464769,166.016,483.398,209.473,-156.25,0,0
1586464769,71.777,498.047,81.055,165.039,0,0
1586464769,-291.016,-198.73,-228.516,100.586,0,0
1586464769,-286.133,-213.379,-198.242,-228.027,0,0
1586464769,54.688,285.156,97.656,-228.516,0,0
1586464769,92.773,334.961,63.477,115.234,0,0
1586464769,-275.391,-120.605,-180.664,161.621,0,0
1586464769,-395.508,-257.812,-252.441,-135.742,0,0
1586464769,-77.148,-65.43,-94.727,-241.211,0,0
1586464769,109.375,-62.988,-39.062,63.477,0,0
1586464769,-182.129,-507.324,-270.996,226.074,0,0
1586464769,-467.285,-314.941,-181.152,-69.336,0,0
1586464769,-258.789,160.645,45.898,-295.41,0,0
1586464769,25.879,287.598,74.219,-72.754,0,0
1586464769,-167.969,242.676,34.18,184.082,0,0
1586464769,-502.93,59.57,-69.824,0,0,0
1586464769,-368.652,-72.266,-236.328,-291.016,0,0
1586464769,-18.066,41.504,-188.477,-206.055,0,0
1586464769,-98.145,352.051,60.547,86.914,0,0
1586464769,-468.75,292.969,19.531,-9.277,0,0
1586464769,-478.516,-221.191,-313.477,-320.801,0,0
1586464769,-150.879,-653.809,-376.953,-344.727,0,0
1586464769,-126.465,-65.43,-17.578,-83.008,0,0
1586464769,-524.902,616.211,153.32,-41.504,0,0
1586464769,-675.293,17.578,-222.656,-326.172,0,0
1586464769,-368.164,20.02,-143.555,-473.633,0,0
1586464769,-159.18,802.734,220.703,-202.148,0,0
1586464769,-418.945,880.371,165.527,-6.836,0,0
1586464769,-659.668,98.145,-242.188,-232.91,0,0
1586464769,-443.359,-142.09,-257.812,-479.492,0,0
1586464769,-163.086,471.191,132.324,-305.176,0,0
1586464769,-303.223,399.902,107.422,1.953,0,0
1586464769,-588.867,-517.578,-347.168,-90.82,0,0
1586464769,-465.82,-915.527,-500,-357.422,0,0
1586464769,-122.559,-153.32,20.508,-330.078,0,0
1586464769,-120.605,329.102,194.824,-4.883,0,0
1586464769,-409.18,-453.613,-231.445,30.762,0,0
1586464769,-405.273,-904.785,-411.133,-262.207,0,0
1586464769,-48.34,-185.059,28.32,-350.586,0,0
1586464769,100.098,252.441,206.543,-21.484,0,0
1586464769,-187.988,-298.34,-91.309,130.859,0,0
1586464769,-338.867,-972.656,-417.48,-123.535,0,0
1586464769,-40.039,-645.02,-148.438,-297.852,0,0
1586464769,217.773,8.301,157.715,-35.156,0,0
1586464769,13.672,-470.215,-146.484,223.633,0,0
1586464769,-262.207,-1000,-391.602,12.207,0,0
1586464769,-80.078,-826.172,-333.496,-251.953,0,0
1586464769,250,-508.789,-146.973,-89.355,0,0
1586464769,122.07,-500.977,-108.398,222.656,0,0
1586464769,-239.258,-600.098,-210.449,120.117,0,0
1586464769,-181.641,-402.832,-133.301,-198.242,0,0
1586464769,179.688,-259.766,-34.668,-183.594,0,0
1586464769,207.52,-611.328,-155.762,178.223,0,0
1586464769,-191.895,-625.488,-91.797,179.688,0,0
1586464769,-292.48,-419.434,-44.922,-155.273,0,0
1586464769,88.379,-459.473,-102.051,-224.121,0,0
1586464769,263.184,-415.039,-34.18,110.84,0,0
1586464769,-50.293,-472.168,-34.668,266.113,0,0
1586464769,-272.949,-539.062,-140.625,-10.254,0,0
1586464769,-20.996,-774.414,-308.594,-189.453,0,0
1586464769,266.113,-764.16,-189.453,62.5,0,0
1586464769,97.168,-409.668,-11.23,289.062,0,0
1586464769,-190.43,-672.363,-306.152,100.586,0,0
1586464769,-55.176,-809.082,-305.664,-187.012,0,0
1586464769,287.598,-237.793,57.617,-88.379,0,0
1586464769,235.352,-61.523,60.547,239.258,0,0
1586464769,-89.844,-683.105,-312.012,161.621,0,0
1586464769,-61.035,-823.242,-369.629,-163.574,0,0
1586464769,288.086,-508.301,-164.062,-173.34,0,0
1586464769,340.82,-57.129,84.961,156.25,0,0
1586464769,7.812,-246.094,-101.074,228.516,0,0
1586464769,-79.59,-901.367,-479.98,-58.105,0,0
1586464769,236.328,-531.738,-170.41,-210.449,0,0
1586464769,413.574,257.324,193.359,58.105,0,0
1586464769,162.109,-48.34,-29.297,254.395,0,0
1586464769,-62.988,-754.395,-383.789,16.113,0,0
1586464769,145.996,-674.316,-318.848,-217.773,0,0
1586464769,409.668,90.82,107.422,-20.508,0,0
1586464769,233.887,8.789,0.977,280.762,0,0
1586464769,-86.914,-815.43,-428.711,120.605,0,0
1586464769,12.207,-860.84,-370.605,-205.078,0,0
1586464769,335.449,-353.516,-20.996,-131.836,0,0
1586464769,292.48,-353.027,-97.656,209.961,0,0
1586464769,-83.496,-888.184,-432.617,168.945,0,0
1586464769,-135.254,-617.188,-250.488,-198.242,0,0
1586464769,201.172,-201.66,-69.336,-254.883,0,0
1586464769,273.438,-38.574,101.562,88.379,0,0
1586464769,-100.586,-129.883,72.754,181.641,0,0
1586464769,-287.598,-321.777,-62.988,-118.164,0,0
1586464769,1.465,-492.676,-222.168,-266.113,0,0
1586464769,197.754,-306.641,-105.957,14.648,0,0
1586464769,-91.309,-353.027,-92.773,228.027,0,0
1586464769,-346.68,-877.93,-395.508,-7.812,0,0
1586464769,-116.211,-819.336,-326.66,-269.043,0,0
1586464769,192.871,-706.543,-249.023,-79.59,0,0
1586464769,16.113,-587.402,-143.066,212.891,0,0
1586464769,-341.309,-378.906,-51.758,71.289,0,0
1586464769,-227.051,-599.609,-300.781,-201.172,0,0
1586464769,145.996,-416.504,-195.312,-155.762,0,0
1586464769,96.68,-41.992,90.332,145.02,0,0
1586464769,-330.566,-219.727,-89.355,113.281,0,0
1586464769,-388.672,-767.578,-429.199,-210.938,0,0
1586464769,-23.438,-555.176,-203.125,-286.621,0,0
1586464769,106.934,126.465,146.973,49.805,0,0
1586464769,-204.102,-243.164,-102.051,200.684,0,0
1586464769,-376.953,-903.32,-501.953,-87.402,0,0
1586464769,-77.148,-777.344,-383.789,-283.203,0,0
1586464769,158.691,67.871,125.488,-24.902,0,0
1586464769,-85.449,222.656,83.496,222.168,0,0
1586464769,-336.426,-613.281,-350.098,8.789,0,0
1586464769,-119.141,-821.777,-399.902,-287.109,0,0
1586464769,185.547,-78.613,-34.18,-169.434,0,0
1586464769,26.855,271.484,136.23,153.32,0,0
1586464769,-318.359,-536.133,-388.672,110.352,0,0
1586464769,-241.699,-863.281,-517.09,-209.961,0,0
1586464769,114.258,-161.133,-14.648,-253.418,0,0
1586464769,140.625,-121.582,-2.441,118.652,0,0
1586464769,-222.656,-736.816,-398.926,190.918,0,0
1586464769,-324.219,-876.465,-477.539,-147.461,0,0
1586464769,8.301,-113.281,-19.531,-286.621,0,0
1586464769,169.922,339.844,138.184,45.41,0,0
1586464769,-140.137,-270.02,-171.387,215.82,0,0
1586464769,-352.539,-541.992,-292.969,-77.148,0,0
1586464769,-97.168,0.977,-11.23,-321.289,0,0
1586464769,157.227,248.047,119.629,-82.031,0,0
1586464769,-68.848,-18.555,11.719,211.426,0,0
1586464769,-386.23,-339.844,-180.176,8.789,0,0
1586464769,-217.773,-352.539,-257.812,-294.922,0,0
1586464769,150.391,-347.656,-222.168,-157.715,0,0
1586464769,72.266,-426.758,-131.836,189.941,0,0
1586464769,-290.527,-486.816,-183.105,96.68,0,0
1586464769,-251.465,-452.637,-212.891,-245.117,0,0
1586464769,108.887,-457.031,-174.316,-247.07,0,0
1586464769,141.113,-518.066,-167.48,119.629,0,0
1586464769,-244.629,-114.746,64.941,170.898,0,0
1586464769,-354.492,-339.844,-228.516,-167.969,0,0
1586464769,-15.625,-519.043,-310.059,-328.613,0,0
1586464769,161.621,-318.848,-85.938,-18.555,0,0
1586464769,-143.555,-245.605,-47.363,185.547,0,0
1586464769,-397.461,-421.387,-257.324,-86.426,0,0
1586464769,-157.227,-743.164,-393.555,-326.66,0,0
1586464769,98.145,-423.828,-134.766,-119.629,0,0
1586464769,-131.348,21.973,82.52,167.969,0,0
1586464769,-479.004,-361.816,-169.922,13.184,0,0
1586464769,-363.77,-908.203,-485.352,-271.484,0,0
1586464769,-44.434,-531.738,-154.785,-218.262,0,0
1586464769,-86.914,104.98,169.434,108.887,0,0
1586464769,-389.16,-363.77,-165.527,107.422,0,0
1586464769,-402.832,-909.668,-456.543,-233.398,0,0
1586464769,-85.449,-357.422,-70.312,-303.711,0,0
1586464769,12.207,59.082,185.547,45.41,0,0
1586464769,-320.801,-528.809,-213.867,153.809,0,0
1586464769,-477.539,-1000,-536.133,-154.785,0,0
1586464769,-173.34,-806.641,-221.68,-334.961,0,0
1586464769,51.27,-99.609,187.5,-71.777,0,0
1586464769,-174.316,-389.16,-142.09,185.547,0,0
1586464769,-418.457,-1000,-528.809,-28.809,0,0
1586464769,-208.496,-704.102,-221.68,-350.586,0,0
1586464769,125.977,-227.051,47.363,-190.43,0,0
1586464769,-20.02,-293.457,2.93,145.996,0,0
1586464769,-382.324,-721.68,-299.805,37.598,0,0
1586464769,-294.922,-912.598,-368.652,-279.297,0,0
1586464769,68.359,-679.688,-228.516,-237.305,0,0
1586464769,70.801,-469.727,-74.219,148.926,0,0
1586464769,-275.391,-834.473,-268.066,182.129,0,0
1586464769,-319.824,-1000,-398.926,-171.875,0,0
1586464769,0.488,-764.16,-277.344,-272.949,0,0
1586464769,110.84,-797.363,-335.938,93.75,0,0
1586464769,-213.379,-743.652,-192.383,248.535,0,0
1586464769,-397.949,-470.215,21.973,-74.219,0,0
1586464770,-81.543,-701.66,-223.633,-271.973,0,0
1586464770,201.172,-610.84,-146.973,0,0,0
1586464770,-27.344,-179.199,133.789,258.301,0,0
1586464770,-292.969,-473.145,-87.891,60.059,0,0
1586464770,-98.145,-842.285,-346.68,-235.352,0,0
1586464770,213.867,-610.84,-199.219,-102.539,0,0
1586464770,96.191,-432.617,10.742,226.562,0,0
1586464770,-257.324,-830.078,-253.418,150.879,0,0
1586464770,-174.805,-1000,-527.832,-165.527,0,0
1586464770,155.273,-774.902,-359.375,-183.594,0,0
1586464770,133.789,-122.07,102.539,154.785,0,0
1586464770,-197.754,-447.266,-138.672,225.098,0,0
1586464770,-292.969,-985.352,-454.102,-104.004,0,0
1586464770,3.906,-558.594,-161.133,-253.418,0,0
1586464770,153.809,81.055,157.715,62.5,0,0
1586464770,-127.441,-243.652,-83.496,278.32,0,0
1586464770,-329.102,-872.559,-401.855,5.859,0,0
1586464770,-100.586,-607.422,-245.117,-257.324,0,0
1586464770,144.043,-271.973,-159.668,-29.785,0,0
1586464770,-81.055,-309.57,-202.637,263.184,0,0
1586464770,-386.23,-727.539,-371.094,95.215,0,0
1586464770,-234.375,-633.789,-219.727,-236.328,0,0
1586464770,92.773,77.148,102.539,-138.184,0,0
1586464770,36.621,-67.383,-81.543,254.395,0,0
1586464770,-316.406,-768.066,-381.348,196.289,0,0
1586464770,-333.496,-717.773,-344.727,-193.359,0,0
1586464770,3.418,-147.949,-103.027,-248.047,0,0
1586464770,92.773,23.438,13.672,136.23,0,0
1586464770,-236.328,-262.207,-154.785,229.004,0,0
1586464770,-347.168,-353.027,-238.281,-104.004,0,0
1586464770,-35.645,-331.543,-268.066,-251.465,0,0
1586464770,141.113,-321.777,-239.746,77.148,0,0
1586464770,-133.301,-221.68,-87.891,287.598,0,0
1586464770,-389.648,-178.223,-98.145,4.395,0,0
1586464770,-147.949,-109.863,-154.297,-262.207,0,0
1586464770,159.18,-235.352,-163.086,-33.203,0,0
1586464770,-19.043,-512.207,-182.617,289.551,0,0
1586464770,-358.398,-146.484,13.672,105.469,0,0
1586464770,-227.539,-79.59,-85.449,-227.539,0,0
1586464770,130.859,-79.59,-111.328,-157.715,0,0
1586464770,91.797,148.926,34.18,207.031,0,0
1586464770,-279.785,-75.195,-163.574,193.848,0,0
1586464770,-299.805,-425.293,-390.137,-156.738,0,0
1586464770,65.43,-706.055,-386.719,-219.727,0,0
1586464770,128.418,-316.895,-142.578,125,0,0
1586464770,-226.562,306.152,83.984,234.863,0,0
1586464770,-367.188,-134.277,-255.371,-65.43,0,0
1586464770,-83.008,-133.301,-172.363,-271.484,0,0
1586464770,135.254,366.699,120.605,17.09,0,0
1586464770,-123.535,360.352,67.383,261.23,0,0
1586464770,-358.887,-271.973,-306.641,35.156,0,0
1586464770,-128.906,-404.297,-291.992,-252.441,0,0
1586464770,97.168,331.055,136.719,-118.652,0,0
1586464770,-62.012,577.148,157.227,231.445,0,0
1586464770,-304.199,-312.012,-322.266,135.742,0,0
1586464770,-213.379,-904.297,-597.168,-216.309,0,0
1586464770,56.152,-180.176,-127.93,-216.309,0,0
1586464770,33.691,438.477,146.973,141.602,0,0
1586464770,-280.273,-218.262,-174.805,189.941,0,0
1586464770,-285.156,-533.203,-312.988,-167.969,0,0
1586464770,32.715,150.391,-14.16,-295.41,0,0
1586464770,129.883,507.324,147.461,54.688,0,0
1586464770,-139.648,98.633,-85.449,228.516,0,0
1586464770,-272.461,-529.785,-365.723,-50.781,0,0
1586464770,18.555,-351.562,-229.004,-291.504,0,0
1586464770,250.977,230.957,59.57,-33.691,0,0
1586464770,16.602,65.918,-59.082,253.418,0,0
1586464770,-243.164,-432.617,-327.148,34.18,0,0
1586464770,-39.551,-230.469,-250,-291.992,0,0
1586464770,272.949,271.973,12.695,-153.809,0,0
1586464770,175.293,-110.84,-103.027,231.934,0,0
1586464770,-151.855,-470.215,-312.5,130.859,0,0
1586464770,-105.469,32.715,-64.453,-236.816,0,0
1586464770,242.676,176.758,25.391,-230.957,0,0
1586464770,271.973,176.27,-14.648,131.836,0,0
1586464770,-74.219,173.828,31.25,185.547,0,0
1586464770,-162.598,3.418,-18.066,-163.086,0,0
1586464770,163.086,-55.664,-54.688,-287.598,0,0
1586464770,313.477,-65.43,-66.895,68.848,0,0
1586464770,-8.789,-136.23,-57.129,239.258,0,0
1586464770,-232.91,-206.055,-192.383,-60.547,0,0
1586464770,54.199,-439.941,-378.418,-292.969,0,0
1586464770,324.707,-500,-244.141,-35.156,0,0
1586464770,77.637,174.316,133.789,239.258,0,0
1586464770,-233.398,140.137,0,35.645,0,0
1586464770,-71.777,-395.996,-299.805,-278.32,0,0
1586464770,258.301,-53.223,-55.664,-167.48,0,0
1586464770,170.898,260.742,107.422,200.684,0,0
1586464770,-168.457,-294.434,-237.793,163.086,0,0
1586464770,-144.043,-469.238,-345.215,-205.078,0,0
1586464770,199.707,-135.742,-170.898,-257.324,0,0
1586464770,257.324,229.98,81.543,115.723,0,0
1586464770,-71.777,207.52,32.227,198.73,0,0
1586464770,-148.926,-580.566,-364.746,-96.68,0,0
1586464770,166.504,-449.707,-211.426,-273.438,0,0
1586464770,328.125,594.727,232.91,-0.977,0,0
1586464770,67.871,354.492,52.246,244.629,0,0
1586464770,-157.715,-242.676,-202.637,-0.977,0,0
1586464770,60.547,22.461,0.977,-302.734,0,0
1586464770,342.285,408.691,130.859,-105.957,0,0
1586464770,185.059,167.969,-16.113,237.793,0,0
1586464770,-112.793,-297.363,-236.328,88.379,0,0
1586464770,27.832,-361.816,-307.617,-242.188,0,0
1586464770,335.938,-13.672,-105.957,-187.012,0,0
1586464770,256.836,-55.176,-104.98,185.059,0,0
1586464770,-91.309,-594.238,-334.473,186.035,0,0
1586464770,-124.512,-235.84,-71.777,-204.102,0,0
1586464770,197.266,331.055,124.512,-288.086,0,0
1586464770,279.785,375.488,117.188,94.238,0,0
1586464770,-53.711,115.234,17.09,229.004,0,0
1586464770,-206.055,-53.223,-173.828,-97.656,0,0
1586464770,88.867,-150.391,-252.93,-307.617,0,0
1586464770,294.434,147.949,45.898,-17.09,0,0
1586464770,32.715,310.059,119.629,242.188,0,0
1586464770,-214.844,-317.383,-298.828,1.465,0,0
1586464770,-20.02,-586.426,-392.09,-292.48,0,0
1586464770,233.398,-90.82,-88.867,-119.141,0,0
1586464770,47.852,363.281,127.441,195.312,0,0
1586464770,-297.852,305.664,95.703,62.988,0,0
1586464770,-191.406,-39.551,-80.078,-272.949,0,0
1586464770,157.715,-386.719,-186.035,-226.562,0,0
1586464770,148.926,97.656,74.707,142.09,0,0
1586464770,-194.336,378.418,104.004,133.789,0,0
1586464770,-222.656,-166.504,-215.332,-200.684,0,0
1586464770,115.723,-126.953,-175.781,-309.57,0,0
1586464770,217.285,401.367,134.766,17.09,0,0
1586464770,-97.656,167.48,6.836,203.125,0,0
1586464770,-241.211,-656.25,-456.055,-73.73,0,0
1586464770,52.734,-638.672,-338.379,-312.012,0,0
1586464770,239.258,455.078,211.426,-73.242,0,0
1586464770,-20.996,567.383,127.441,214.844,0,0
1586464770,-267.578,-536.621,-385.742,30.762,0,0
1586464770,-83.008,-705.078,-322.754,-287.598,0,0
1586464770,196.289,355.469,188.965,-175.293,0,0
1586464770,72.266,630.859,158.203,188.965,0,0
1586464770,-230.957,-189.453,-234.863,106.934,0,0
1586464770,-151.855,-550.781,-342.285,-241.699,0,0
1586464770,164.062,63.477,-8.789,-248.047,0,0
1586464770,176.758,270.996,103.516,110.84,0,0
1586464770,-127.441,-489.258,-300.781,202.148,0,0
1586464770,-199.707,-696.777,-400.391,-142.09,0,0
1586464770,104.492,179.199,41.992,-322.266,0,0
1586464770,268.066,467.773,94.238,23.926,0,0
1586464770,-23.438,103.027,-20.02,227.051,0,0
1586464770,-244.141,-203.125,-192.871,-62.988,0,0
1586464770,30.762,-169.434,-278.32,-330.566,0,0
1586464770,312.012,2.93,-97.656,-83.008,0,0
1586464770,90.82,126.953,59.082,223.633,0,0
1586464770,-204.59,32.227,-5.859,22.949,0,0
1586464770,-36.621,-125.977,-125.977,-302.246,0,0
1586464770,291.504,-309.57,-306.152,-176.27,0,0
1586464770,203.613,-267.578,-157.227,193.848,0,0
1586464770,-176.27,-73.242,-20.508,114.746,0,0
1586464770,-176.27,-25.391,-84.473,-240.234,0,0
1586464770,180.664,-228.027,-171.387,-249.512,0,0
1586464770,222.656,-131.836,-104.492,112.305,0,0
1586464770,-140.625,154.297,88.379,177.246,0,0
1586464770,-259.277,-183.105,-144.531,-136.23,0,0
1586464770,69.824,-217.285,-204.102,-296.387,0,0
1586464770,228.516,-51.27,-38.086,5.859,0,0
1586464770,-80.566,-228.516,-100.098,232.422,0,0
1586464770,-273.926,-422.852,-311.523,-25.879,0,0
1586464770,-32.715,-471.68,-319.336,-310.547,0,0
1586464770,224.609,-7.324,-0.488,-110.84,0,0
1586464770,37.598,417.48,172.363,204.102,0,0
1586464770,-261.23,-104.98,-197.266,57.617,0,0
1586464770,-112.305,-786.621,-452.148,-257.812,0,0
1586464770,193.359,-284.18,-42.48,-217.285,0,0
1586464770,108.398,562.012,241.211,123.047,0,0
1586464770,-208.984,-63.965,-156.738,131.836,0,0
1586464770,-207.031,-635.742,-426.758,-208.984,0,0
1586464770,117.188,71.289,-5.371,-298.34,0,0
1586464770,206.543,687.988,261.719,69.824,0,0
1586464770,-111.816,157.227,-100.586,202.637,0,0
1586464770,-259.277,-673.34,-458.496,-111.816,0,0
1586464770,28.32,-627.441,-367.676,-319.824,0,0
1586464770,225.586,144.531,9.766,-53.223,0,0
1586464770,-33.203,-43.457,-107.422,213.867,0,0
1586464770,-276.367,-753.418,-474.121,-8.301,0,0
1586464770,-87.402,-171.875,-120.117,-330.566,0,0
1586464770,210.449,431.152,131.348,-161.133,0,0
1586464770,93.262,239.258,-8.301,193.359,0,0
1586464770,-261.23,-176.758,-225.586,49.316,0,0
1586464770,-196.289,-239.746,-278.809,-287.598,0,0
1586464770,166.016,-67.871,-185.547,-224.609,0,0
1586464770,137.695,237.793,74.219,141.113,0,0
1586464770,-217.285,-88.379,-117.188,166.504,0,0
1586464770,-260.742,-300.781,-313.965,-178.223,0,0
1586464770,78.613,241.211,-27.344,-302.246,0,0
1586464770,201.172,-49.805,-127.441,68.848,0,0
1586464770,-133.789,-497.07,-321.777,230.957,0,0
1586464770,-316.895,-158.203,-249.023,-106.934,0,0
1586464770,-34.18,44.434,-103.027,-323.73,0,0
1586464770,192.871,210.938,72.754,-42.48,0,0
1586464770,-43.457,290.039,84.961,215.332,0,0
1586464770,-295.41,29.297,-46.875,-8.301,0,0
1586464770,-107.91,-240.723,-255.371,-302.246,0,0
1586464770,187.012,47.363,-120.117,-152.832,0,0
1586464770,92.773,257.812,88.379,183.105,0,0
1586464770,-200.684,-146.484,-187.5,78.613,0,0
1586464770,-129.395,-503.418,-385.742,-261.719,0,0
1586464770,198.73,-1.465,-71.777,-256.348,0,0
1586464770,212.891,759.766,213.867,113.281,0,0
1586464770,-117.676,563.477,113.281,165.527,0,0
1586464770,-180.176,-380.371,-354.004,-161.133,0,0
1586464770,150.391,-746.094,-504.395,-290.039,0,0
1586464770,263.672,453.125,129.395,4.395,0,0
1586464770,-43.457,529.785,55.664,187.012,0,0
1586464770,-222.168,-84.473,-297.363,-83.984,0,0
1586464770,23.438,203.613,-120.117,-346.68,0,0
1586464770,248.535,557.617,94.238,-130.859,0,0
1586464770,41.504,518.066,44.922,138.672,0,0
1586464770,-243.164,-386.719,-387.207,-41.016,0,0
1586464770,-141.113,-472.656,-332.031,-372.559,0,0
1586464770,108.887,634.277,130.859,-325.684,0,0
1586464770,30.273,772.949,104.004,21.484,0,0
1586464770,-279.785,264.16,-141.113,-39.062,0,0
1586464770,-283.203,261.719,-74.707,-422.363,0,0
1586464770,34.668,796.387,182.129,-481.934,0,0
1586464770,111.328,837.891,142.578,-102.539,0,0
1586464770,-229.004,264.16,-40.527,7.324,0,0
1586464770,-361.816,16.113,-132.812,-336.914,0,0
1586464770,-13.672,77.148,-189.453,-502.93,0,0
1586464770,183.105,114.746,-176.758,-161.621,0,0
1586464770,-114.258,-199.219,-266.602,65.43,0,0
1586464770,-349.609,-120.605,-238.77,-209.473,0,0
1586464770,-104.004,233.398,1.465,-459.473,0,0
1586464770,175.293,364.258,111.816,-221.68,0,0
1586464770,-5.859,517.578,146.484,93.75,0,0
1586464770,-291.504,264.16,11.23,-65.43,0,0
1586464770,-140.137,-58.594,-87.402,-377.93,0,0
1586464770,215.332,22.949,81.055,-281.738,0,0
1586464770,162.109,245.117,180.176,80.566,0,0
1586464770,-171.387,31.25,39.551,51.27,0,0
1586464770,-156.738,-611.816,-289.062,-260.254,0,0
1586464770,150.391,-802.734,-286.621,-292.48,0,0
1586464770,232.91,-196.777,80.566,52.734,0,0
1586464770,-43.457,80.078,131.348,160.156,0,0
1586464770,-127.93,-368.652,-75.684,-135.742,0,0
1586464770,181.152,-878.418,-346.191,-270.508,0,0
1586464770,354.004,-475.098,-95.215,41.992,0,0
1586464770,107.91,210.938,251.953,271.973,0,0
1586464770,-118.164,-454.102,-154.785,40.527,0,0
1586464770,66.406,-791.504,-234.863,-255.371,0,0
1586464770,347.656,-170.41,140.137,-69.824,0,0
1586464770,216.797,199.707,232.422,258.301,0,0
1586464770,-79.102,-498.535,-209.473,145.02,0,0
1586464770,19.531,-896.484,-379.395,-156.25,0,0
1586464770,299.805,-147.949,144.043,-138.672,0,0
1586464770,259.766,328.613,244.141,225.098,0,0
1586464770,-48.34,-311.523,-74.219,254.883,0,0
1586464770,-100.586,-686.523,-139.16,-83.984,0,0
1586464770,165.527,-71.289,138.184,-193.848,0,0
1586464770,250.977,249.512,214.355,140.137,0,0
1586464770,-24.902,-282.715,-34.18,296.387,0,0
1586464770,-171.875,-939.941,-339.355,9.766,0,0
1586464771,81.055,-590.332,-113.281,-196.289,0,0
1586464771,295.41,190.918,212.891,72.266,0,0
1586464771,91.797,-117.188,-23.438,321.289,0,0
1586464771,-200.195,-731.934,-300.781,69.336,0,0
1586464771,-86.914,-349.609,-36.621,-238.77,0,0
1586464771,201.66,148.926,147.461,-75.195,0,0
1586464771,130.859,-369.141,-102.051,295.41,0,0
1586464771,-185.059,-629.883,-116.699,181.641,0,0
1586464771,-131.836,-243.164,36.133,-184.57,0,0
1586464771,225.098,-212.891,46.387,-156.738,0,0
1586464771,225.098,20.02,142.578,203.613,0,0
1586464771,-126.953,80.566,68.848,229.004,0,0
1586464771,-191.895,-144.531,-56.152,-104.98,0,0
1586464771,113.77,-190.918,-73.242,-222.168,0,0
1586464771,228.027,-142.09,-75.195,114.258,0,0
1586464771,-75.195,-100.098,-2.93,275.879,0,0
1586464771,-267.09,-157.715,-128.418,-19.043,0,0
1586464771,-3.418,-508.789,-387.695,-220.703,0,0
1586464771,230.957,-508.301,-250.488,31.738,0,0
1586464771,12.207,174.316,114.258,286.133,0,0
1586464771,-257.812,-49.316,-130.371,89.844,0,0
1586464771,-103.027,-475.098,-351.074,-223.145,0,0
1586464771,175.781,98.145,23.926,-115.723,0,0
1586464771,73.73,333.496,123.535,238.281,0,0
1586464771,-233.887,-333.008,-231.934,171.387,0,0
1586464771,-174.805,-663.086,-417.48,-159.18,0,0
1586464771,139.16,-269.043,-174.316,-192.871,0,0
1586464771,106.445,209.473,122.07,119.629,0,0
1586464771,-241.211,11.23,-68.359,175.781,0,0
1586464771,-331.055,-778.809,-515.137,-139.16,0,0
1586464771,-78.613,-457.52,-222.168,-328.613,0,0
1586464771,55.664,563.965,234.863,-40.039,0,0
1586464771,-210.938,258.789,-26.855,190.918,0,0
1586464771,-423.828,-402.344,-359.863,-85.938,0,0
1586464771,-189.941,-83.008,-111.328,-354.004,0,0
1586464771,103.027,545.41,192.871,-114.258,0,0
1586464771,-42.48,361.816,35.156,219.727,0,0
1586464771,-327.637,-297.852,-323.242,62.5,0,0
1586464771,-202.637,-475.098,-380.859,-259.766,0,0
1586464771,116.211,-115.723,-178.223,-162.598,0,0
1586464771,76.66,-159.668,-248.047,210.449,0,0
1586464771,-274.414,-777.832,-519.043,156.25,0,0
1586464771,-292.48,-540.527,-390.137,-213.379,0,0
1586464771,41.016,92.773,-76.172,-279.297,0,0
1586464771,105.469,358.887,116.699,85.449,0,0
1586464771,-204.102,228.027,22.949,193.848,0,0
1586464771,-303.711,24.414,-158.691,-150.879,0,0
1586464771,13.184,-104.004,-274.414,-322.266,0,0
1586464771,198.242,74.707,-132.812,2.93,0,0
1586464771,-81.055,245.605,18.066,230.957,0,0
1586464771,-347.656,-274.414,-254.883,-39.551,0,0
1586464771,-142.09,-310.059,-269.531,-325.195,0,0
1586464771,158.691,-305.664,-281.25,-91.309,0,0
1586464771,7.812,-406.738,-293.457,237.305,0,0
1586464771,-327.148,-184.082,-203.613,56.152,0,0
1586464771,-239.258,-292.969,-305.176,-259.766,0,0
1586464771,90.332,88.867,-88.867,-205.566,0,0
1586464771,57.617,492.676,102.539,144.043,0,0
1586464771,-269.531,156.25,-133.301,143.066,0,0
1586464771,-291.992,-339.355,-383.301,-191.895,0,0
1586464771,25.879,-69.336,-157.715,-271.484,0,0
1586464771,115.234,537.109,152.344,76.172,0,0
1586464771,-171.875,57.617,-150.391,233.398,0,0
1586464771,-312.012,-806.152,-567.871,-81.055,0,0
1586464771,-49.316,-571.289,-349.121,-315.43,0,0
1586464771,153.32,380.371,120.605,-48.828,0,0
1586464771,-83.008,526.367,116.699,210.449,0,0
1586464771,-300.781,-340.332,-356.445,-7.324,0,0
1586464771,-104.492,-765.625,-572.754,-287.598,0,0
1586464771,135.742,51.27,-56.641,-152.832,0,0
1586464771,27.832,440.43,94.727,175.781,0,0
1586464771,-279.785,-466.309,-360.84,95.703,0,0
1586464771,-225.586,-757.324,-445.312,-246.094,0,0
1586464771,98.633,113.281,-56.641,-238.77,0,0
1586464771,103.516,304.688,57.129,126.465,0,0
1586464771,-228.516,-548.828,-397.461,177.246,0,0
1586464771,-301.758,-700.195,-459.961,-175.781,0,0
1586464771,-11.23,181.641,-28.809,-337.891,0,0
1586464771,129.395,440.918,81.543,43.945,0,0
1586464771,-137.207,33.203,-154.297,237.305,0,0
1586464771,-333.008,-220.215,-329.102,-83.496,0,0
1586464771,-84.961,144.043,-64.453,-304.199,0,0
1586464771,188.477,372.559,57.617,-27.832,0,0
1586464771,-0.977,-84.961,-279.785,270.508,0,0
1586464771,-309.082,-415.527,-385.254,56.641,0,0
1586464771,-174.805,-137.207,-203.613,-270.02,0,0
1586464771,148.926,0.977,-162.109,-121.094,0,0
1586464771,73.73,-308.105,-237.793,232.422,0,0
1586464771,-271.973,-189.941,-205.078,132.812,0,0
1586464771,-251.953,18.066,-188.477,-224.121,0,0
1586464771,84.961,-28.32,-151.367,-225.098,0,0
1586464771,132.812,232.422,49.805,147.461,0,0
1586464771,-179.688,234.863,29.785,197.754,0,0
1586464771,-288.574,-297.363,-292.48,-120.117,0,0
1586464771,7.812,-376.465,-296.875,-265.137,0,0
1586464771,194.824,-94.238,-41.992,50.781,0,0
1586464771,-89.355,-27.344,-36.133,254.395,0,0
1586464771,-278.809,-288.574,-289.062,-22.461,0,0
1586464771,-14.648,-522.949,-346.68,-249.512,0,0
1586464771,194.336,-270.996,-145.996,-19.531,0,0
1586464771,-7.812,87.402,50.781,236.816,0,0
1586464771,-283.691,-54.688,-114.258,46.875,0,0
1586464771,-140.137,-601.562,-350.098,-256.348,0,0
1586464771,145.508,-173.34,-20.996,-166.992,0,0
1586464771,72.754,549.316,188.965,193.359,0,0
1586464771,-249.512,-15.137,-162.109,147.461,0,0
1586464771,-247.559,-487.793,-376.465,-225.586,0,0
1586464771,66.406,41.504,-61.523,-289.062,0,0
1586464771,137.207,500.488,151.855,83.008,0,0
1586464771,-169.434,77.637,-141.113,206.543,0,0
1586464771,-280.273,-634.277,-488.77,-118.164,0,0
1586464771,7.812,-319.336,-172.852,-314.941,0,0
1586464771,187.5,558.594,214.844,-13.184,0,0
1586464771,-65.43,70.801,-158.203,244.629,0,0
1586464771,-314.941,-933.594,-586.426,17.09,0,0
1586464771,-125.488,-323.242,-153.32,-300.781,0,0
1586464771,160.645,497.559,184.082,-124.512,0,0
1586464771,12.695,306.641,6.836,215.332,0,0
1586464771,-302.734,-185.059,-282.715,69.336,0,0
1586464771,-214.844,-333.496,-320.801,-265.625,0,0
1586464771,114.746,-95.215,-113.281,-202.637,0,0
1586464771,91.309,176.758,102.539,160.156,0,0
1586464771,-235.352,-294.922,-179.199,160.645,0,0
1586464771,-256.348,-530.762,-365.723,-178.223,0,0
1586464771,65.43,30.762,-56.641,-279.785,0,0
1586464771,178.223,-160.156,-104.492,91.309,0,0
1586464771,-148.438,-319.336,-128.906,216.309,0,0
1586464771,-312.988,-69.336,-121.582,-114.746,0,0
1586464771,-13.184,-158.691,-198.242,-297.852,0,0
1586464771,200.684,48.34,-14.16,-15.625,0,0
1586464771,-54.199,229.492,83.008,209.473,0,0
1586464771,-294.922,42.969,-19.043,-18.555,0,0
1586464771,-85.938,-229.98,-184.57,-285.645,0,0
1586464771,194.824,-26.367,-116.699,-122.07,0,0
1586464771,65.918,119.629,19.043,202.637,0,0
1586464771,-259.766,-153.32,-113.281,71.289,0,0
1586464771,-172.852,-532.715,-381.348,-243.652,0,0
1586464771,152.832,-646.484,-333.496,-212.402,0,0
1586464771,114.258,221.68,158.203,102.539,0,0
1586464771,-213.867,318.848,88.867,135.742,0,0
1586464771,-262.695,-314.453,-235.352,-188.477,0,0
1586464771,61.523,-68.359,-60.059,-287.109,0,0
1586464771,206.543,484.863,149.902,69.336,0,0
1586464771,-83.984,87.402,-121.582,211.426,0,0
1586464771,-294.434,-478.027,-340.82,-101.074,0,0
1586464771,-56.641,-218.75,-127.441,-307.129,0,0
1586464771,175.293,191.895,63.965,-37.598,0,0
1586464771,-46.875,15.625,-64.453,217.773,0,0
1586464771,-318.848,-673.828,-449.707,16.602,0,0
1586464771,-175.781,-663.086,-433.594,-289.551,0,0
1586464771,100.098,206.055,-14.16,-176.27,0,0
1586464771,3.906,371.582,49.316,167.48,0,0
1586464771,-310.059,-155.273,-243.164,99.609,0,0
1586464771,-266.602,-105.957,-216.797,-237.305,0,0
1586464771,68.848,408.691,68.848,-263.672,0,0
1586464771,129.395,368.652,44.922,110.84,0,0
1586464771,-209.473,18.066,-90.82,197.266,0,0
1586464771,-317.871,-135.254,-208.496,-125.977,0,0
1586464771,7.324,-92.773,-236.816,-278.32,0,0
1586464771,182.617,-97.656,-165.527,51.758,0,0
1586464771,-89.355,-590.332,-345.215,250.977,0,0
1586464771,-301.758,-448.242,-299.805,-44.434,0,0
1586464771,-55.664,28.32,-87.402,-285.645,0,0
1586464771,195.312,182.129,36.621,-73.242,0,0
1586464771,5.859,218.262,43.945,206.055,0,0
1586464771,-276.367,61.523,-51.758,32.715,0,0
1586464771,-124.023,-43.457,-135.742,-269.043,0,0
1586464771,197.754,-26.855,-128.906,-156.738,0,0
1586464771,140.625,108.887,6.348,187.988,0,0
1586464771,-179.199,160.645,30.762,116.211,0,0
1586464771,-172.852,-390.625,-317.871,-218.75,0,0
1586464771,149.902,-264.16,-195.801,-271.484,0,0
1586464771,218.75,431.152,150.879,77.637,0,0
1586464771,-80.078,155.273,-83.008,191.895,0,0
1586464771,-199.219,-541.992,-437.012,-116.211,0,0
1586464771,68.359,-439.453,-229.004,-287.109,0,0
1586464771,243.164,320.801,139.648,6.348,0,0
1586464771,-18.555,462.891,111.816,224.121,0,0
1586464771,-241.211,-208.496,-295.898,-16.113,0,0
1586464771,-24.414,-757.324,-430.664,-270.02,0,0
1586464771,217.285,-29.785,28.809,-93.75,0,0
1586464771,56.641,590.332,150.879,225.586,0,0
1586464771,-221.68,-317.871,-373.535,98.633,0,0
1586464771,-121.094,-840.332,-517.578,-236.328,0,0
1586464771,170.898,138.672,60.547,-206.055,0,0
1586464771,142.578,777.344,217.773,154.297,0,0
1586464771,-202.148,77.148,-85.938,156.25,0,0
1586464771,-246.094,-328.613,-276.367,-193.359,0,0
1586464771,87.891,5.371,-183.105,-268.555,0,0
1586464771,185.547,295.41,67.383,90.82,0,0
1586464771,-125.488,47.363,-49.805,219.727,0,0
1586464771,-271.484,-604.004,-413.574,-102.051,0,0
1586464771,8.301,-360.352,-202.637,-308.594,0,0
1586464771,212.402,293.457,132.324,-22.949,0,0
1586464771,-22.461,100.098,-38.086,238.77,0,0
1586464771,-269.043,-394.531,-317.383,11.23,0,0
1586464771,-99.121,-195.801,-206.543,-292.48,0,0
1586464771,193.359,338.867,73.242,-124.512,0,0
1586464771,80.078,-145.508,-124.023,242.676,0,0
1586464771,-262.695,-523.438,-303.223,107.91,0,0
1586464771,-201.172,122.559,11.23,-253.418,0,0
1586464771,140.137,254.395,58.105,-202.148,0,0
1586464771,146.973,179.199,4.395,154.785,0,0
1586464771,-193.359,-166.504,-172.363,174.316,0,0
1586464771,-261.719,-473.633,-330.078,-166.504,0,0
1586464771,80.078,-226.074,-255.371,-272.949,0,0
1586464771,207.031,-89.355,-157.227,60.059,0,0
1586464771,-120.117,-197.266,-144.043,195.801,0,0
1586464771,-294.922,-240.723,-277.344,-105.957,0,0
1586464771,4.395,-541.016,-413.086,-316.895,0,0
1586464771,225.586,-613.281,-272.949,-47.363,0,0
1586464771,-23.438,178.223,135.742,191.895,0,0
1586464771,-280.762,-21.973,-175.293,-7.812,0,0
1586464771,-124.512,-387.207,-338.867,-292.969,0,0
1586464771,160.645,242.188,79.102,-172.852,0,0
1586464771,76.66,292.48,-0.977,190.43,0,0
1586464771,-246.094,-431.152,-380.859,108.887,0,0
1586464771,-189.941,-485.84,-331.055,-207.031,0,0
1586464771,141.113,-62.5,-78.613,-193.359,0,0
1586464771,145.02,208.008,82.52,134.766,0,0
1586464771,-163.574,-132.812,-183.594,189.941,0,0
1586464771,-260.742,-563.477,-365.234,-157.715,0,0
1586464771,28.32,-167.969,-81.055,-299.316,0,0
1586464771,172.363,559.082,169.922,28.809,0,0
1586464771,-97.168,405.762,5.859,211.914,0,0
1586464771,-270.996,-560.059,-360.352,-47.363,0,0
1586464771,-48.34,-277.344,-73.242,-309.57,0,0
1586464771,194.824,647.949,220.703,-83.008,0,0
1586464771,29.785,289.551,-1.953,243.164,0,0
1586464771,-265.625,-444.824,-343.75,43.945,0,0
1586464771,-140.625,-489.258,-356.445,-276.855,0,0
1586464771,166.016,195.312,56.641,-179.199,0,0
1586464771,123.047,275.879,17.09,172.852,0,0
1586464771,-194.336,-671.875,-398.926,143.555,0,0
1586464771,-237.793,-353.027,-114.746,-239.746,0,0
1586464771,87.891,435.547,144.043,-281.25,0,0
1586464771,165.039,469.238,124.023,98.633,0,0
1586464771,-154.297,144.043,3.418,187.012,0,0
1586464771,-269.531,-19.043,-195.312,-145.508,0,0
1586464771,12.207,-80.078,-268.066,-311.523,0,0
1586464771,182.617,177.246,44.434,10.742,0,0
1586464771,-83.008,308.105,92.773,225.586,0,0
1586464771,-299.316,-351.562,-292.969,-40.527,0,0
1586464771,-92.773,-434.57,-304.688,-301.758,0,0
1586464771,185.059,-356.445,-240.234,-64.941,0,0
1586464771,17.578,-137.207,-42.969,236.816,0,0
1586464771,-300.781,198.73,75.684,52.734,0,0
1586464771,-172.852,-124.512,-161.621,-258.789,0,0
1586464771,171.387,-351.074,-255.859,-185.547,0,0
1586464771,135.254,227.051,98.145,148.926,0,0
1586464771,-226.562,382.812,112.305,127.441,0,0
1586464771,-254.883,-208.984,-224.121,-195.312,0,0
1586464771,87.891,-72.266,-130.371,-268.066,0,0
1586464771,174.316,499.512,170.898,75.195,0,0
1586464771,-144.043,137.207,-59.082,196.777,0,0
1586464771,-273.438,-707.031,-490.234,-100.586,0,0
1586464772,2.441,-707.031,-418.945,-286.133,0,0
1586464772,191.406,53.711,6.836,-22.461,0,0
1586464772,-53.711,168.457,20.996,199.219,0,0
1586464772,-303.223,-357.91,-257.812,-40.039,0,0
1586464772,-99.121,-365.234,-182.617,-311.523,0,0
1586464772,170.898,372.559,174.316,-148.438,0,0
1586464772,37.109,501.953,145.02,186.523,0,0
1586464772,-252.93,-275.391,-217.773,107.422,0,0
1586464772,-177.734,-594.727,-319.824,-216.309,0,0
1586464772,137.695,112.305,34.18,-233.887,0,0
1586464772,153.809,312.988,67.871,135.254,0,0
1586464772,-154.785,-467.285,-276.855,198.73,0,0
1586464772,-209.473,-499.023,-291.992,-139.648,0,0
1586464772,103.516,258.301,29.297,-263.672,0,0
1586464772,237.793,586.426,124.512,100.098,0,0
1586464772,-50.781,-274.414,-251.465,288.086,0,0
1586464772,-231.934,-657.227,-374.512,-33.203,0,0
1586464772,22.461,115.234,-64.941,-273.926,0,0
1586464772,247.07,396.973,100.586,-4.883,0,0
1586464772,44.434,186.523,21.973,252.93,0,0
1586464772,-212.891,9.766,-56.641,32.227,0,0
1586464772,-63.965,179.199,27.832,-262.695,0,0
1586464772,255.859,119.141,-40.039,-101.074,0,0
1586464772,155.762,-338.867,-248.047,265.137,0,0
1586464772,-205.566,-220.215,-212.402,155.273,0,0
1586464772,-153.809,20.02,-186.523,-195.801,0,0
1586464772,178.223,20.996,-109.863,-187.012,0,0
1586464772,194.336,291.016,68.359,163.574,0,0
1586464772,-130.371,334.961,55.664,198.73,0,0
1586464772,-212.891,-54.199,-210.449,-124.023,0,0
1586464772,101.562,-44.434,-225.586,-242.188,0,0
1586464772,252.93,83.984,-40.527,68.359,0,0
1586464772,-57.617,84.961,31.25,215.332,0,0
1586464772,-263.672,-74.219,-185.059,-58.105,0,0
1586464772,-4.883,-397.461,-373.047,-269.043,0,0
1586464772,229.492,83.008,13.184,-35.156,0,0
1586464772,14.648,446.777,126.465,242.676,0,0
1586464772,-258.301,-189.453,-260.742,58.105,0,0
1586464772,-101.562,-674.805,-361.816,-255.859,0,0
1586464772,193.848,-25.391,27.832,-160.156,0,0
1586464772,109.863,665.039,181.152,185.059,0,0
1586464772,-219.727,-24.414,-199.707,136.719,0,0
1586464772,-207.52,-463.379,-378.418,-195.312,0,0
1586464772,126.465,138.184,-12.207,-251.953,0,0
1586464772,189.453,628.418,225.098,100.586,0,0
1586464772,-122.07,124.512,-145.996,217.773,0,0
1586464772,-225.586,-692.383,-520.508,-112.305,0,0
1586464772,56.641,-391.113,-261.719,-293.945,0,0
1586464772,212.402,478.027,160.645,4.883,0,0
1586464772,-49.805,34.668,-140.137,230.469,0,0
1586464772,-278.809,-801.27,-515.137,-17.09,0,0
1586464772,-84.473,-154.297,-49.316,-294.434,0,0
1586464772,185.059,255.859,79.59,-83.496,0,0
1586464772,8.301,114.258,46.387,228.516,0,0
1586464772,-305.176,-144.043,-110.352,80.566,0,0
1586464772,-186.523,-284.18,-289.062,-249.023,0,0
1586464772,126.953,-76.66,-123.047,-196.777,0,0
1586464772,67.383,113.281,41.992,154.297,0,0
1586464772,-271.484,-292.969,-238.281,129.395,0,0
1586464772,-288.086,-511.23,-363.281,-203.125,0,0
1586464772,31.738,136.719,-7.812,-267.09,0,0
1586464772,140.625,-182.617,-173.34,104.98,0,0
1586464772,-166.992,-451.172,-201.172,220.703,0,0
1586464772,-311.523,71.777,34.18,-112.305,0,0
1586464772,-14.648,61.523,-12.207,-291.016,0,0
1586464772,168.457,335.449,136.719,-19.531,0,0
1586464772,-79.59,384.766,117.676,213.867,0,0
1586464772,-306.641,-220.215,-200.684,-16.602,0,0
1586464772,-93.75,-451.172,-362.305,-299.316,0,0
1586464772,194.336,21.973,-104.492,-108.398,0,0
1586464772,72.754,59.57,0.977,251.953,0,0
1586464772,-236.816,-300.781,-231.445,121.582,0,0
1586464772,-176.758,-551.758,-392.578,-240.723,0,0
1586464772,127.441,-562.5,-279.297,-209.473,0,0
1586464772,94.238,288.574,160.645,126.953,0,0
1586464772,-245.117,307.129,24.414,125,0,0
1586464772,-295.898,-468.75,-322.754,-211.914,0,0
1586464772,10.742,-113.77,-58.594,-329.59,0,0
1586464772,148.438,596.68,161.133,13.184,0,0
1586464772,-127.441,85.449,-148.926,201.172,0,0
1586464772,-306.152,-456.543,-354.004,-103.516,0,0
1586464772,-45.41,-157.227,-138.672,-319.336,0,0
1586464772,198.242,197.266,83.008,-19.531,0,0
1586464772,-8.789,152.832,25.391,237.305,0,0
1586464772,-276.855,-658.691,-464.355,23.438,0,0
1586464772,-115.723,-711.426,-344.238,-280.762,0,0
1586464772,156.25,448.73,222.168,-161.621,0,0
1586464772,42.969,616.699,133.301,181.641,0,0
1586464772,-270.996,-28.809,-196.777,80.566,0,0
1586464772,-220.215,-86.426,-171.875,-254.883,0,0
1586464772,113.77,399.902,118.652,-253.906,0,0
1586464772,150.391,396.484,74.219,119.141,0,0
1586464772,-180.176,-32.227,-169.922,177.246,0,0
1586464772,-273.926,-163.574,-285.645,-162.109,0,0
1586464772,42.969,-258.789,-331.055,-276.367,0,0
1586464772,203.125,-111.816,-179.688,62.012,0,0
1586464772,-87.891,-70.801,-106.445,236.328,0,0
1586464772,-302.734,-368.652,-283.691,-73.73,0,0
1586464772,-45.41,-56.641,-81.543,-317.871,0,0
1586464772,224.121,9.766,-62.5,-46.387,0,0
1586464772,2.441,-445.801,-256.836,229.004,0,0
1586464772,-309.57,-266.113,-208.984,-0.488,0,0
1586464772,-150.391,-17.09,-120.117,-297.852,0,0
1586464772,190.43,32.715,-33.691,-157.715,0,0
1586464772,85.449,156.25,37.109,184.57,0,0
1586464772,-251.465,29.297,-42.969,94.727,0,0
1586464772,-215.332,-419.922,-330.078,-236.328,0,0
1586464772,117.188,-687.012,-397.949,-226.562,0,0
1586464772,168.457,-222.168,-93.75,128.906,0,0
1586464772,-173.34,302.246,100.098,174.316,0,0
1586464772,-274.902,-314.453,-297.852,-132.812,0,0
1586464772,25.391,-367.676,-227.051,-287.598,0,0
1586464772,201.172,215.82,95.703,4.883,0,0
1586464772,-61.035,291.504,85.449,202.637,0,0
1586464772,-280.762,-361.328,-308.105,-45.898,0,0
1586464772,-57.129,-544.434,-383.301,-290.039,0,0
1586464772,200.684,142.578,51.758,-91.797,0,0
1586464772,11.23,319.336,112.305,210.938,0,0
1586464772,-285.645,-450.195,-378.418,64.453,0,0
1586464772,-162.598,-748.535,-484.375,-248.535,0,0
1586464772,137.207,209.961,62.5,-203.125,0,0
1586464772,89.844,649.902,165.527,140.137,0,0
1586464772,-231.445,-110.352,-146.973,132.324,0,0
1586464772,-238.281,-499.023,-336.914,-194.336,0,0
1586464772,101.074,170.41,-54.199,-260.742,0,0
1586464772,181.152,509.766,124.512,91.797,0,0
1586464772,-160.645,-72.266,-173.828,194.824,0,0
1586464772,-302.734,-747.559,-450.195,-115.723,0,0
1586464772,-9.277,-430.664,-239.258,-295.41,0,0
1586464772,189.453,446.777,160.156,-14.648,0,0
1586464772,-47.852,124.023,-54.199,229.492,0,0
1586464772,-290.039,-495.605,-343.75,-15.625,0,0
1586464772,-101.562,-109.863,-99.609,-297.852,0,0
1586464772,185.547,425.781,109.375,-108.398,0,0
1586464772,75.684,-209.473,-190.43,237.305,0,0
1586464772,-250.488,-792.48,-424.805,94.727,0,0
1586464772,-191.895,-219.727,-171.875,-261.23,0,0
1586464772,145.02,146.973,36.133,-202.148,0,0
1586464772,129.883,181.641,45.41,173.34,0,0
1586464772,-211.426,8.789,-14.648,173.34,0,0
1586464772,-242.188,-177.734,-200.684,-180.664,0,0
1586464772,110.352,-138.672,-193.848,-255.371,0,0
1586464772,236.816,-29.297,-22.949,111.816,0,0
1586464772,-114.258,-233.887,-128.906,218.262,0,0
1586464772,-303.711,-294.434,-236.328,-110.84,0,0
1586464772,4.883,-437.012,-373.047,-282.715,0,0
1586464772,236.816,-576.172,-322.266,0,0,0
1586464772,-20.996,83.008,92.285,221.191,0,0
1586464772,-290.527,-81.055,-183.105,4.883,0,0
1586464772,-99.121,-490.723,-360.352,-283.203,0,0
1586464772,162.109,-83.008,-26.855,-130.859,0,0
1586464772,31.25,-18.555,-103.516,230.469,0,0
1586464772,-245.605,-587.891,-411.133,119.141,0,0
1586464772,-198.242,-747.07,-394.043,-232.91,0,0
1586464772,108.398,-318.848,-174.316,-235.352,0,0
1586464772,119.629,265.625,92.773,129.883,0,0
1586464772,-199.707,23.926,-116.699,187.012,0,0
1586464772,-272.949,-543.945,-368.164,-155.273,0,0
1586464772,24.414,-57.129,-29.297,-297.363,0,0
1586464772,155.273,726.562,255.371,32.227,0,0
1586464772,-129.883,406.25,14.648,211.426,0,0
1586464772,-290.039,-591.797,-353.516,-42.48,0,0
1586464772,-24.902,-300.781,-106.445,-272.461,0,0
1586464772,192.871,524.902,176.27,-57.129,0,0
1586464772,-48.34,226.562,-35.645,213.379,0,0
1586464772,-302.246,-389.16,-346.191,-18.066,0,0
1586464772,-117.188,-482.422,-356.934,-333.008,0,0
1586464772,145.996,-21.484,-78.613,-187.988,0,0
1586464772,72.266,-46.875,-106.934,176.758,0,0
1586464772,-243.652,-725.098,-424.316,121.582,0,0
1586464772,-233.398,-310.547,-141.113,-242.676,0,0
1586464772,114.746,145.996,30.762,-263.184,0,0
1586464772,169.434,148.926,48.34,110.352,0,0
1586464772,-172.363,73.242,35.156,170.898,0,0
1586464772,-276.855,-78.613,-122.559,-171.387,0,0
1586464772,34.18,-131.348,-228.027,-310.547,0,0
1586464772,220.703,80.078,4.395,20.996,0,0
1586464772,-54.199,150.879,41.016,223.145,0,0
1586464772,-279.297,-386.23,-323.242,-59.57,0,0
1586464772,-51.27,-348.145,-278.809,-319.824,0,0
1586464772,220.703,-329.102,-275.879,-78.613,0,0
1586464772,35.645,-289.062,-156.25,213.379,0,0
1586464772,-284.18,52.734,-22.949,18.555,0,0
1586464772,-152.344,-148.438,-196.289,-281.738,0,0
1586464772,183.105,137.207,-17.578,-202.637,0,0
1586464772,119.629,646.484,209.473,139.16,0,0
1586464772,-233.887,181.152,-69.336,109.863,0,0
1586464772,-237.305,-557.129,-416.992,-208.984,0,0
1586464772,86.426,-182.617,-137.207,-250.977,0,0
1586464772,156.25,482.422,154.297,88.379,0,0
1586464772,-139.648,55.176,-82.031,199.219,0,0
1586464772,-261.23,-690.43,-463.867,-100.098,0,0
1586464772,16.602,-744.141,-433.594,-271.973,0,0
1586464772,192.383,265.625,118.164,-16.602,0,0
1586464772,-78.125,588.379,172.852,197.266,0,0
1586464772,-308.594,-257.812,-228.027,-31.25,0,0
1586464772,-101.562,-337.402,-199.219,-296.387,0,0
1586464772,163.574,444.336,171.875,-113.77,0,0
1586464772,20.508,604.004,152.344,209.961,0,0
1586464772,-274.902,-266.113,-265.625,72.266,0,0
1586464772,-174.805,-571.289,-363.77,-270.996,0,0
1586464772,141.113,152.832,54.199,-220.703,0,0
1586464772,105.469,278.809,87.891,151.367,0,0
1586464772,-225.098,-424.805,-276.855,155.762,0,0
1586464772,-266.602,-538.574,-338.379,-191.406,0,0
1586464772,60.547,88.379,-73.73,-281.25,0,0
1586464772,177.246,395.508,51.27,65.918,0,0
1586464772,-122.07,-380.371,-312.012,220.703,0,0
1586464772,-298.828,-745.605,-419.922,-100.586,0,0
1586464772,-48.828,30.273,-85.449,-321.289,0,0
1586464772,176.758,311.523,44.434,-32.227,0,0
1586464772,-60.547,-0.977,-110.352,214.355,0,0
1586464772,-339.355,-113.77,-184.082,-39.062,0,0
1586464772,-160.645,47.852,-199.707,-333.008,0,0
1586464772,167.48,20.508,-273.926,-136.719,0,0
1586464772,52.734,-216.797,-289.062,205.078,0,0
1586464772,-308.105,-240.723,-309.57,49.805,0,0
1586464772,-256.836,-146.484,-358.887,-297.852,0,0
1586464772,85.449,165.039,-171.875,-270.02,0,0
1586464772,92.773,567.871,60.059,91.797,0,0
1586464772,-273.438,597.656,44.434,99.609,0,0
1586464772,-369.629,331.055,-181.641,-257.324,0,0
1586464772,-64.453,416.992,-166.504,-374.023,0,0
1586464772,72.266,562.5,-33.691,-64.453,0,0
1586464772,-248.047,543.945,31.738,59.57,0,0
1586464772,-459.961,359.863,-161.621,-255.859,0,0
1586464772,-219.238,172.852,-377.93,-489.258,0,0
1586464772,-11.719,580.566,-67.871,-263.672,0,0
1586464772,-240.723,896.973,126.953,-8.301,0,0
1586464772,-526.367,599.121,-135.742,-199.219,0,0
1586464772,-339.355,-193.359,-452.148,-474.121,0,0
1586464772,-22.949,-126.953,-322.754,-359.375,0,0
1586464772,-156.25,910.645,130.859,-48.828,0,0
1586464772,-483.398,553.223,-136.23,-114.258,0,0
1586464772,-421.875,-18.555,-384.277,-423.34,0,0
1586464772,-72.754,442.383,-51.758,-422.363,0,0
1586464772,-22.461,896.973,161.133,-67.383,0,0
1586464772,-354.004,425.781,-117.188,1.953,0,0
1586464772,-424.316,-442.871,-489.746,-287.598,0,0
1586464772,-95.215,-192.871,-163.086,-423.34,0,0
1586464772,69.336,603.027,240.234,-107.91,0,0
1586464772,-169.922,59.57,-166.016,128.906,0,0
1586464772,-341.797,-844.727,-542.969,-105.469,0,0
1586464772,-122.559,-262.695,-85.449,-368.652,0,0
1586464772,179.199,299.316,173.828,-100.098,0,0
1586464772,37.598,-48.828,-35.156,237.793,0,0
1586464772,-262.207,-652.832,-322.754,53.711,0,0
1586464772,-124.023,-735.352,-328.125,-253.906,0,0
1586464772,208.008,-363.77,-72.754,-146.484,0,0
1586464772,150.879,-148.438,86.426,221.191,0,0
1586464772,-163.086,-658.203,-237.793,187.5,0,0
1586464772,-163.574,-958.496,-374.023,-156.738,0,0
1586464772,148.926,-272.461,-21.484,-217.285,0,0
1586464772,249.512,-418.457,-153.32,166.992,0,0
1586464772,-83.008,-786.133,-246.094,268.555,0,0
1586464772,-239.258,-448.242,-123.535,-72.266,0,0
1586464773,74.707,-445.801,-245.605,-226.562,0,0
1586464773,277.832,-163.574,-16.113,75.684,0,0
1586464773,24.902,12.207,72.266,310.547,0,0
1586464773,-220.215,-231.934,-122.07,64.941,0,0
1586464773,-15.625,-459.961,-248.535,-209.473,0,0
1586464773,277.344,-383.789,-125,6.348,0,0
1586464773,125.977,-192.383,32.227,319.824,0,0
1586464773,-180.664,-541.992,-222.168,156.25,0,0
1586464773,-84.961,-906.25,-436.035,-164.551,0,0
1586464773,233.887,-744.629,-341.797,-109.375,0,0
1586464773,182.617,77.637,105.957,220.215,0,0
1586464773,-157.227,138.184,52.734,215.332,0,0
1586464773,-165.527,-533.203,-301.758,-113.281,0,0
1586464773,161.621,-359.863,-152.344,-219.238,0,0
1586464773,255.859,354.004,204.59,119.141,0,0
1586464773,-47.363,48.34,-49.316,270.02,0,0
1586464773,-212.891,-621.582,-383.789,-41.992,0,0
1586464773,63.477,-315.918,-128.906,-236.816,0,0
1586464773,285.156,192.383,135.742,54.688,0,0
1586464773,52.246,23.438,-41.504,285.156,0,0
1586464773,-202.148,-716.797,-488.281,67.383,0,0
1586464773,-23.926,-686.035,-333.008,-236.328,0,0
1586464773,253.418,326.172,184.57,-104.98,0,0
1586464773,138.184,512.695,120.117,248.535,0,0
1586464773,-177.734,-228.516,-258.301,143.555,0,0
1586464773,-130.859,-375,-296.387,-199.707,0,0
1586464773,200.195,203.125,35.156,-181.152,0,0
1586464773,219.727,314.453,82.52,189.453,0,0
1586464773,-114.258,-170.898,-210.449,229.004,0,0
1586464773,-200.684,-256.348,-276.855,-115.234,0,0
1586464773,107.422,-112.793,-192.383,-238.281,0,0
1586464773,246.582,-56.152,-52.734,108.887,0,0
1586464773,-47.363,-27.344,4.395,274.902,0,0
1586464773,-228.516,-222.168,-228.027,-34.668,0,0
1586464773,23.438,-103.516,-219.727,-275.879,0,0
1586464773,263.672,-145.508,-186.523,-4.395,0,0
1586464773,61.523,-636.719,-366.211,285.156,0,0
1586464773,-238.77,-333.008,-234.863,48.34,0,0
1586464773,-79.102,-92.285,-216.309,-257.324,0,0
1586464773,237.305,-117.188,-217.285,-115.723,0,0
1586464773,134.277,96.191,2.93,219.727,0,0
1586464773,-211.426,47.852,-33.691,117.676,0,0
1586464773,-149.414,-404.297,-332.52,-192.871,0,0
1586464773,209.473,-720.215,-423.828,-177.246,0,0
1586464773,215.332,-320.801,-148.926,162.598,0,0
1586464773,-125.488,239.258,74.219,192.871,0,0
1586464773,-209.473,-174.316,-290.039,-136.719,0,0
1586464773,89.844,-234.863,-212.402,-267.09,0,0
1586464773,249.023,451.172,194.336,45.898,0,0
1586464773,-33.203,419.922,38.086,242.676,0,0
1586464773,-253.906,-462.402,-387.695,-21.484,0,0
1586464773,-27.344,-440.43,-240.723,-268.066,0,0
1586464773,235.352,394.531,159.668,-51.27,0,0
1586464773,58.594,576.66,162.598,239.258,0,0
1586464773,-225.586,-395.996,-354.492,84.961,0,0
1586464773,-100.098,-806.152,-505.859,-227.539,0,0
1586464773,200.195,130.859,36.133,-166.992,0,0
1586464773,131.836,566.895,157.715,193.848,0,0
1586464773,-211.426,-216.797,-217.773,165.039,0,0
1586464773,-216.797,-659.668,-427.246,-186.523,0,0
1586464773,113.77,-130.371,-181.641,-251.465,0,0
1586464773,189.453,270.508,59.082,96.68,0,0
1586464773,-138.672,-100.586,-144.043,200.195,0,0
1586464773,-263.184,-579.59,-386.719,-112.793,0,0
1586464773,24.902,-178.223,-188.965,-297.363,0,0
1586464773,210.938,245.117,58.594,1.953,0,0
1586464773,-42.48,-206.543,-109.375,249.512,0,0
1586464773,-284.18,-553.711,-324.707,-4.883,0,0
1586464773,-76.172,4.883,-71.777,-299.805,0,0
1586464773,213.867,530.762,151.367,-95.703,0,0
1586464773,55.664,286.133,-20.02,246.582,0,0
1586464773,-256.836,-4.395,-73.242,95.703,0,0
1586464773,-138.184,-2.93,-173.34,-240.234,0,0
1586464773,170.898,76.172,-166.992,-187.012,0,0
1586464773,132.324,238.77,88.379,185.547,0,0
1586464773,-196.777,66.406,-69.824,173.828,0,0
1586464773,-231.934,3.418,-150.391,-177.246,0,0
1586464773,100.098,148.926,-5.859,-243.652,0,0
1586464773,206.543,43.457,-46.387,113.281,0,0
1586464773,-124.512,-126.465,-165.039,230.469,0,0
1586464773,-274.902,-389.16,-326.66,-95.703,0,0
1586464773,30.273,-509.277,-374.023,-274.902,0,0
1586464773,226.562,-404.297,-245.117,22.461,0,0
1586464773,-41.992,153.809,89.355,238.281,0,0
1586464773,-274.902,74.219,-113.77,2.441,0,0
1586464773,-55.176,-280.273,-270.996,-279.785,0,0
1586464773,220.703,204.102,66.406,-125.488,0,0
1586464773,84.473,300.293,59.082,227.051,0,0
1586464773,-226.074,-202.148,-248.535,109.863,0,0
1586464773,-154.297,-306.152,-299.805,-241.211,0,0
1586464773,178.711,-128.906,-137.207,-199.707,0,0
1586464773,177.246,250.488,111.816,160.645,0,0
1586464773,-164.062,249.023,31.738,181.641,0,0
1586464773,-207.031,-660.156,-484.863,-127.93,0,0
1586464773,112.305,-601.074,-290.039,-245.117,0,0
1586464773,210.449,400.391,205.078,58.105,0,0
1586464773,-81.543,179.688,-16.113,226.074,0,0
1586464773,-254.883,-357.422,-292.969,-52.734,0,0
1586464773,-9.766,-54.199,-117.676,-291.992,0,0
1586464773,230.469,530.762,192.383,-35.645,0,0
1586464773,17.09,300.781,43.945,260.254,0,0
1586464773,-270.508,-256.348,-289.551,29.785,0,0
1586464773,-105.469,-321.777,-331.543,-291.016,0,0
1586464773,186.035,280.762,71.777,-154.297,0,0
1586464773,103.516,285.645,18.066,223.145,0,0
1586464773,-206.055,-654.297,-427.734,143.066,0,0
1586464773,-180.664,-363.281,-262.207,-238.77,0,0
1586464773,149.414,274.902,-16.602,-238.281,0,0
1586464773,166.016,355.469,95.703,130.371,0,0
1586464773,-157.227,61.035,-41.992,187.988,0,0
1586464773,-235.84,-266.113,-236.328,-143.066,0,0
1586464773,66.406,-116.211,-79.102,-278.809,0,0
1586464773,236.816,279.297,152.832,62.988,0,0
1586464773,-30.273,210.938,41.504,200.684,0,0
1586464773,-234.375,-377.441,-281.738,-88.379,0,0
1586464773,-1.953,-243.652,-252.441,-273.438,0,0
1586464773,283.691,-355.957,-318.848,-42.48,0,0
1586464773,85.938,-377.441,-166.016,237.305,0,0
1586464773,-229.98,76.172,27.344,26.367,0,0
1586464773,-79.59,-143.066,-240.234,-274.414,0,0
1586464773,241.211,14.648,-104.004,-153.32,0,0
1586464773,176.27,327.637,95.703,199.707,0,0
1586464773,-151.367,164.551,-20.996,126.953,0,0
1586464773,-145.508,-97.656,-212.891,-219.727,0,0
1586464773,179.199,26.367,-162.598,-260.254,0,0
1586464773,242.676,351.074,92.285,96.68,0,0
1586464773,-97.168,172.852,-62.5,190.43,0,0
1586464773,-208.984,-374.512,-435.059,-137.695,0,0
1586464773,106.445,-506.836,-383.789,-297.852,0,0
1586464773,260.742,410.156,114.258,6.348,0,0
1586464773,-2.93,657.715,131.836,228.027,0,0
1586464773,-206.055,-126.465,-221.68,-16.113,0,0
1586464773,-4.883,-92.285,-128.906,-282.715,0,0
1586464773,250,657.227,151.855,-92.773,0,0
1586464773,99.609,759.766,136.719,219.238,0,0
1586464773,-182.617,-59.082,-203.125,75.684,0,0
1586464773,-62.5,-369.141,-335.938,-250.488,0,0
1586464773,241.699,346.68,25.879,-194.824,0,0
1586464773,179.688,376.953,60.547,163.086,0,0
1586464773,-159.668,-168.945,-238.281,130.371,0,0
1586464773,-166.992,-248.047,-294.434,-198.242,0,0
1586464773,131.836,400.391,61.523,-270.02,0,0
1586464773,217.285,741.699,135.742,81.055,0,0
1586464773,-62.988,-260.254,-268.555,244.629,0,0
1586464773,-221.191,-618.164,-389.16,-99.121,0,0
1586464773,41.016,230.469,-40.039,-328.613,0,0
1586464773,263.184,477.051,103.516,-5.371,0,0
1586464773,33.691,238.77,36.621,250,0,0
1586464773,-219.238,5.859,-93.75,10.254,0,0
1586464773,-20.02,38.086,-117.188,-280.273,0,0
1586464773,286.133,91.309,-9.766,-108.398,0,0
1586464773,176.758,-326.66,-182.617,257.324,0,0
1586464773,-164.551,-322.266,-236.328,126.465,0,0
1586464773,-105.957,6.348,-95.703,-238.77,0,0
1586464773,247.07,165.039,21.973,-218.262,0,0
1586464773,263.672,202.637,7.324,170.898,0,0
1586464773,-76.172,96.68,-1.465,192.871,0,0
1586464773,-135.254,-108.887,-149.902,-178.223,0,0
1586464773,185.547,-48.34,-182.617,-282.227,0,0
1586464773,308.594,178.711,-20.996,78.125,0,0
1586464773,0.977,117.676,50.293,214.355,0,0
1586464773,-170.41,-122.07,-145.996,-92.285,0,0
1586464773,98.633,-437.988,-350.098,-299.805,0,0
1586464773,302.246,-93.262,-48.828,-30.273,0,0
1586464773,50.293,340.82,142.09,241.211,0,0
1586464773,-211.426,-134.766,-175.781,25.391,0,0
1586464773,-7.812,-728.027,-401.367,-271.973,0,0
1586464773,238.281,-140.137,20.02,-152.832,0,0
1586464773,113.281,438.965,168.945,186.523,0,0
1586464773,-188.477,-166.504,-201.66,109.375,0,0
1586464773,-150.879,-518.066,-325.684,-263.184,0,0
1586464773,166.992,24.902,-1.465,-291.504,0,0
1586464773,175.781,468.75,194.824,103.516,0,0
1586464773,-129.883,-153.32,-182.129,187.5,0,0
1586464773,-213.867,-912.598,-534.668,-159.18,0,0
1586464773,62.012,-445.801,-237.793,-332.031,0,0
1586464773,216.309,395.508,174.805,-3.418,0,0
1586464773,-36.621,-98.633,-184.082,220.703,0,0
1586464773,-238.77,-941.895,-626.953,-47.852,0,0
1586464773,-32.715,-308.105,-161.133,-346.68,0,0
1586464773,203.125,437.012,136.719,-110.352,0,0
1586464773,4.883,186.523,-37.109,218.262,0,0
1586464773,-295.898,-186.035,-242.676,19.043,0,0
1586464773,-141.602,-263.184,-296.387,-301.758,0,0
1586464773,187.012,-141.113,-173.828,-174.316,0,0
1586464773,105.957,76.66,-28.809,193.359,0,0
1586464773,-220.215,-335.449,-266.602,133.789,0,0
1586464773,-214.355,-484.375,-334.961,-232.91,0,0
1586464773,104.492,190.918,22.949,-288.574,0,0
1586464773,183.105,-239.746,-178.711,128.906,0,0
1586464773,-126.465,-755.371,-364.258,244.629,0,0
1586464773,-234.375,-139.16,-114.746,-134.277,0,0
1586464773,64.941,10.742,-79.59,-322.754,0,0
1586464773,246.582,168.945,48.828,20.508,0,0
1586464773,-24.902,325.195,112.305,274.414,0,0
1586464773,-269.043,-2.441,-87.891,4.395,0,0
1586464773,-43.945,-293.457,-322.266,-278.32,0,0
1586464773,238.281,1.465,-122.559,-69.824,0,0
1586464773,79.59,103.516,42.969,270.996,0,0
1586464773,-213.867,-388.184,-271.484,116.211,0,0
1586464773,-87.891,-802.246,-495.605,-231.934,0,0
1586464773,221.191,-648.438,-333.496,-169.922,0,0
1586464773,156.25,141.113,80.078,179.688,0,0
1586464773,-158.691,168.945,-13.184,161.621,0,0
1586464773,-151.367,-432.617,-334.473,-188.965,0,0
1586464773,143.066,-210.449,-144.531,-291.016,0,0
1586464773,189.941,542.969,203.613,78.125,0,0
1586464773,-105.957,66.895,-110.352,253.906,0,0
1586464773,-248.047,-708.496,-459.473,-76.66,0,0
1586464773,12.695,-330.078,-213.379,-312.012,0,0
1586464773,206.055,89.355,36.621,-3.906,0,0
1586464773,-54.688,-33.691,-79.59,263.672,0,0
1586464773,-291.992,-706.055,-517.09,33.691,0,0
1586464773,-88.379,-643.066,-345.215,-285.645,0,0
1586464773,177.246,81.055,11.23,-125.488,0,0
1586464773,27.832,25.879,-45.898,243.164,0,0
1586464773,-295.898,-219.238,-163.086,111.328,0,0
1586464773,-226.562,-63.965,-78.125,-260.742,0,0
1586464773,119.629,453.125,157.227,-254.883,0,0
1586464773,123.047,435.059,57.617,146.973,0,0
1586464773,-240.723,-145.508,-238.77,187.988,0,0
1586464773,-311.523,-310.059,-322.754,-170.41,0,0
1586464773,2.441,-192.871,-244.141,-295.898,0,0
1586464773,117.188,-165.527,-166.504,71.777,0,0
1586464773,-187.012,-551.758,-297.852,261.23,0,0
1586464773,-352.051,-433.105,-285.156,-73.73,0,0
1586464773,-89.355,141.602,20.996,-330.566,0,0
1586464773,128.418,88.867,-28.809,-35.645,0,0
1586464773,-90.82,-265.625,-171.387,281.25,0,0
1586464773,-365.234,-320.801,-140.625,46.875,0,0
1586464773,-194.336,-338.379,-187.5,-299.805,0,0
1586464773,109.863,-90.82,-50.293,-158.203,0,0
1586464773,3.418,24.414,36.621,230.469,0,0
1586464773,-315.43,-89.844,-27.344,131.836,0,0
1586464773,-245.117,-333.008,-235.84,-244.629,0,0
1586464773,108.398,-675.293,-380.859,-234.863,0,0
1586464773,124.512,-309.57,-158.203,150.879,0,0
1586464773,-225.586,395.02,179.688,184.082,0,0
1586464773,-299.316,-143.066,-116.699,-166.016,0,0
1586464773,22.461,-225.586,-98.145,-338.867,0,0
1586464773,185.059,437.988,187.5,11.719,0,0
1586464773,-103.027,484.375,158.203,243.164,0,0
1586464773,-284.18,-147.461,-149.902,-53.711,0,0
1586464773,-20.996,-312.012,-188.477,-318.848,0,0
1586464773,217.285,132.324,109.375,-70.801,0,0
1586464773,21.973,284.668,154.785,272.461,0,0
1586464773,-255.859,-350.586,-249.023,94.727,0,0
1586464773,-127.441,-725.586,-412.598,-291.992,0,0
1586464773,166.016,119.629,57.617,-229.98,0,0
1586464773,95.215,659.668,244.629,187.988,0,0
1586464773,-224.121,-64.941,-179.199,175.781,0,0
1586464773,-215.332,-843.262,-511.719,-199.219,0,0
1586464773,78.613,20.02,37.109,-308.105,0,0
1586464773,151.367,642.09,216.797,86.914,0,0
1586464773,-138.672,122.07,-61.523,233.887,0,0
1586464773,-259.277,-527.832,-361.816,-122.07,0,0
1586464774,10.742,-238.281,-175.781,-334.473,0,0
1586464774,187.012,445.312,171.387,17.578,0,0
1586464774,-59.57,10.254,-102.539,261.719,0,0
1586464774,-301.27,-701.172,-440.43,-32.715,0,0
1586464774,-103.516,-457.031,-315.43,-325.684,0,0
1586464774,188.965,191.406,-60.059,-118.164,0,0
1586464774,46.387,-175.781,-141.602,260.742,0,0
1586464774,-272.461,-510.742,-292.969,85.938,0,0
1586464774,-161.133,-172.852,-318.359,-303.223,0,0
1586464774,150.391,97.656,-122.559,-252.441,0,0
1586464774,105.469,171.387,57.617,155.273,0,0
1586464774,-218.262,115.234,10.742,153.32,0,0
1586464774,-237.305,134.766,-43.457,-230.957,0,0
1586464774,85.938,112.793,-88.867,-314.453,0,0
1586464774,180.176,78.613,-63.965,73.73,0,0
1586464774,-134.277,-93.262,-129.395,204.59,0,0
1586464774,-289.062,-100.098,-208.496,-152.832,0,0
1586464774,-2.441,-320.801,-351.074,-353.516,0,0
1586464774,203.613,-711.426,-423.34,-3.418,0,0
1586464774,-58.594,-44.922,22.461,256.836,0,0
1586464774,-307.129,169.434,38.086,5.859,0,0
1586464774,-102.051,-242.188,-203.125,-323.242,0,0
1586464774,195.312,14.16,-15.625,-160.645,0,0
1586464774,53.223,312.012,134.277,218.75,0,0
1586464774,-268.555,-113.281,-146.484,95.703,0,0
1586464774,-179.199,-511.719,-365.723,-288.574,0,0
1586464774,145.02,-285.156,-213.379,-269.043,0,0
1586464774,147.461,196.777,74.219,150.391,0,0
1586464774,-162.109,208.008,46.387,184.57,0,0
1586464774,-191.406,-699.219,-465.82,-190.43,0,0
1586464774,96.191,-609.863,-299.805,-350.098,0,0
1586464774,207.031,577.148,256.348,4.883,0,0
1586464774,-50.293,363.281,43.945,230.957,0,0
1586464774,-218.262,-487.305,-318.359,-84.961,0,0
1586464774,30.273,-179.688,-109.375,-354.98,0,0
1586464774,268.555,520.996,183.594,-64.941,0,0
1586464774,48.34,390.137,70.801,261.719,0,0
1586464774,-212.891,-245.605,-281.25,35.156,0,0
1586464774,-41.504,-419.922,-341.797,-326.66,0,0
1586464774,231.445,77.148,19.043,-188.965,0,0
1586464774,125.977,127.441,-31.25,219.238,0,0
1586464774,-190.43,-527.344,-376.953,136.23,0,0
1586464774,-167.969,-303.223,-294.922,-278.809,0,0
1586464774,123.535,434.082,18.555,-328.613,0,0
1586464774,160.645,366.699,-29.785,128.906,0,0
1586464774,-139.648,-26.367,-276.855,248.535,0,0
1586464774,-240.723,74.707,-221.191,-162.598,0,0
1586464774,53.711,-107.422,-345.703,-330.566,0,0
1586464774,217.285,-61.035,-243.164,54.688,0,0
1586464774,-58.594,193.848,-41.992,295.41,0,0
1586464774,-246.094,-221.191,-280.273,0.488,0,0
1586464774,-9.766,-310.547,-337.891,-311.523,0,0
1586464774,231.445,-439.941,-359.375,-63.477,0,0
1586464774,26.855,-491.699,-269.531,285.645,0,0
1586464774,-266.113,78.613,0.488,61.523,0,0
1586464774,-125,6.836,-108.398,-333.496,0,0
1586464774,173.34,158.203,-4.883,-237.793,0,0
1586464774,94.238,538.086,164.551,195.801,0,0
1586464774,-254.883,274.902,0.488,148.926,0,0
1586464774,-254.883,-222.656,-270.02,-261.719,0,0
1586464774,42.969,-91.309,-165.527,-339.844,0,0
1586464774,87.891,523.926,166.504,86.426,0,0
1586464774,-224.121,118.164,-81.543,241.699,0,0
1586464774,-334.473,-741.211,-521.973,-119.629,0,0
1586464774,-34.668,-789.551,-481.445,-332.52,0,0
1586464774,107.91,117.676,51.27,0,0,0
1586464774,-146.973,417.969,116.699,267.578,0,0
1586464774,-341.309,-364.258,-251.465,-20.02,0,0
1586464774,-152.344,-434.082,-271.484,-364.258,0,0
1586464774,102.051,310.059,72.754,-139.648,0,0
1586464774,-33.203,459.473,122.559,254.395,0,0
1586464774,-301.27,-251.953,-216.309,110.352,0,0
1586464774,-185.059,-464.355,-298.828,-275.391,0,0
1586464774,143.066,165.039,14.648,-248.047,0,0
1586464774,113.281,178.711,51.758,197.266,0,0
1586464774,-212.891,-452.148,-247.07,228.027,0,0
1586464774,-212.891,-477.051,-298.34,-201.66,0,0
1586464774,104.004,84.473,-27.832,-312.988,0,0
1586464774,185.059,354.004,107.422,128.418,0,0
1586464774,-102.051,-337.402,-210.449,306.641,0,0
1586464774,-257.812,-738.77,-421.875,-93.262,0,0
1586464774,-18.555,-44.922,-132.324,-385.742,0,0
1586464774,181.152,286.621,52.246,-11.719,0,0
1586464774,-43.945,-14.16,-84.473,329.59,0,0
1586464774,-292.969,-178.711,-158.691,33.203,0,0
1586464774,-122.559,41.992,-12.695,-352.539,0,0
1586464774,156.25,27.832,-9.277,-140.625,0,0
1586464774,31.25,-330.078,-182.129,291.016,0,0
1586464774,-272.949,-171.875,-38.574,138.184,0,0
1586464774,-203.613,88.867,51.27,-288.086,0,0
1586464774,97.168,-19.043,-31.738,-261.23,0,0
1586464774,80.566,234.863,102.051,175.781,0,0
1586464774,-232.422,190.43,19.531,243.164,0,0
1586464774,-268.555,-402.344,-300.781,-137.695,0,0
1586464774,20.996,-361.816,-219.727,-344.238,0,0
1586464774,135.254,53.223,37.598,53.223,0,0
1586464774,-137.695,148.438,130.859,306.152,0,0
1586464774,-304.688,-156.25,-118.164,-54.199,0,0
1586464774,-57.617,-579.102,-384.277,-375.977,0,0
1586464774,137.695,-183.594,-53.223,-97.168,0,0
1586464774,-73.73,419.434,221.191,265.137,0,0
1586464774,-330.078,9.277,-102.051,62.988,0,0
1586464774,-194.336,-630.859,-338.379,-337.402,0,0
1586464774,98.633,-96.191,21.973,-217.773,0,0
1586464774,6.836,645.508,233.398,205.566,0,0
1586464774,-278.809,61.035,-120.605,155.273,0,0
1586464774,-229.492,-454.59,-332.52,-258.301,0,0
1586464774,31.25,61.523,-22.949,-333.008,0,0
1586464774,25.391,389.648,186.035,107.422,0,0
1586464774,-275.391,12.695,-52.734,224.121,0,0
1586464774,-340.332,-450.684,-369.629,-186.035,0,0
1586464774,-55.176,-160.645,-139.16,-399.902,0,0
1586464774,73.73,588.379,221.191,3.906,0,0
1586464774,-189.453,270.996,-55.664,291.016,0,0
1586464774,-362.793,-589.355,-445.312,-18.066,0,0
1586464774,-143.066,-39.551,-108.398,-371.582,0,0
1586464774,83.984,721.191,193.359,-122.559,0,0
1586464774,-76.172,469.727,-2.93,280.273,0,0
1586464774,-332.031,29.297,-288.574,81.543,0,0
1586464774,-192.871,-24.902,-315.43,-333.496,0,0
1586464774,123.047,95.215,-291.992,-211.914,0,0
1586464774,62.012,283.203,-269.531,252.93,0,0
1586464774,-306.152,-0.488,-358.887,180.176,0,0
1586464774,-317.383,-244.141,-400.879,-277.832,0,0
1586464774,3.906,180.664,-269.043,-353.027,0,0
1586464774,60.059,114.746,-285.156,129.395,0,0
1586464774,-230.957,-197.266,-386.23,287.109,0,0
1586464774,-355.469,55.664,-339.355,-141.602,0,0
1586464774,-104.492,99.121,-346.191,-381.836,0,0
1586464774,68.359,396.484,-97.168,-18.555,0,0
1586464774,-181.152,543.945,57.129,278.809,0,0
1586464774,-414.551,300.781,-173.828,-29.297,0,0
1586464774,-191.895,127.441,-330.078,-386.23,0,0
1586464774,105.957,326.66,-154.785,-155.273,0,0
1586464774,-33.691,480.469,30.273,250.977,0,0
1586464774,-336.426,283.691,-116.699,89.844,0,0
1586464774,-233.398,-45.898,-364.258,-318.359,0,0
1586464774,84.473,-531.738,-497.07,-256.836,0,0
1586464774,34.668,-42.969,-106.934,191.895,0,0
1586464774,-288.574,344.727,28.809,204.102,0,0
1586464774,-297.363,-108.398,-232.422,-229.492,0,0
1586464774,0,20.02,-129.883,-370.117,0,0
1586464774,57.617,675.293,180.176,49.805,0,0
1586464774,-214.355,368.652,-22.949,260.254,0,0
1586464774,-316.895,-378.418,-318.848,-103.516,0,0
1586464774,-45.898,-185.059,-199.219,-393.555,0,0
1586464774,181.152,267.09,-12.207,-46.875,0,0
1586464774,-40.527,166.504,-62.012,294.434,0,0
1586464774,-277.344,-406.25,-326.172,19.043,0,0
1586464774,-104.004,-302.734,-250.488,-386.719,0,0
1586464774,166.504,546.387,66.406,-212.402,0,0
1586464774,68.848,694.336,102.051,241.211,0,0
1586464774,-208.008,-10.254,-195.312,134.766,0,0
1586464774,-125.488,-200.195,-304.688,-301.758,0,0
1586464774,173.34,487.305,3.418,-319.824,0,0
1586464774,167.48,693.848,93.262,139.648,0,0
1586464774,-122.559,377.441,-25.879,215.332,0,0
1586464774,-154.297,126.465,-152.832,-205.078,0,0
1586464774,148.438,121.582,-273.438,-376.953,0,0
1586464774,289.062,298.828,-115.234,44.434,0,0
1586464774,26.855,-145.508,-229.98,299.316,0,0
1586464774,-151.855,-156.738,-297.852,-81.055,0,0
1586464774,88.379,302.734,-198.73,-395.508,0,0
1586464774,306.641,443.359,-34.18,-83.984,0,0
1586464774,71.289,549.316,87.891,255.371,0,0
1586464774,-212.402,466.797,14.648,21.484,0,0
1586464774,-48.34,347.168,-27.344,-359.375,0,0
1586464774,242.676,264.16,-26.367,-198.73,0,0
1586464774,105.469,267.578,-10.254,240.723,0,0
1586464774,-213.867,305.664,-33.691,142.09,0,0
1586464774,-165.039,88.867,-206.055,-300.781,0,0
1586464774,137.695,-380.859,-390.137,-316.406,0,0
1586464774,137.695,-85.449,-143.555,140.137,0,0
1586464774,-191.406,612.793,146.484,213.867,0,0
1586464774,-248.047,174.316,-145.508,-193.848,0,0
1586464774,38.086,28.809,-135.742,-395.02,0,0
1586464774,160.156,566.895,127.441,18.066,0,0
1586464774,-129.883,622.07,121.582,284.668,0,0
1586464774,-320.801,69.336,-177.734,-58.594,0,0
1586464774,-89.844,-185.059,-300.293,-384.277,0,0
1586464774,139.648,375,95.703,-106.934,0,0
1586464774,-40.039,587.891,137.695,267.578,0,0
1586464774,-291.504,-281.25,-362.305,86.426,0,0
1586464774,-172.852,-862.305,-483.887,-304.688,0,0
1586464774,86.914,-90.332,24.902,-229.004,0,0
1586464774,33.203,671.387,250,226.074,0,0
1586464774,-251.953,75.684,-134.277,203.125,0,0
1586464774,-254.883,-362.793,-317.871,-247.559,0,0
1586464774,20.996,320.801,78.125,-376.465,0,0
1586464774,83.984,722.656,204.59,78.613,0,0
1586464774,-192.871,240.723,-20.02,260.742,0,0
1586464774,-296.387,-326.66,-271.484,-140.137,0,0
1586464774,-39.062,-152.344,-224.121,-420.41,0,0
1586464774,116.211,467.285,91.309,-43.945,0,0
1586464774,-126.465,227.539,-9.766,300.781,0,0
1586464774,-326.66,-292.969,-287.598,-12.207,0,0
1586464774,-132.324,-12.695,-168.945,-399.414,0,0
1586464774,108.398,288.086,33.203,-134.766,0,0
1586464774,-52.734,-28.809,-62.012,310.547,0,0
1586464774,-343.262,-132.324,-63.965,122.559,0,0
1586464774,-250.977,229.004,80.566,-329.102,0,0
1586464774,41.016,284.668,35.156,-271.973,0,0
1586464774,-2.93,160.645,49.805,206.055,0,0
1586464774,-344.727,138.672,50.293,204.102,0,0
1586464774,-366.211,144.043,15.625,-234.863,0,0
1586464774,-41.016,82.52,-25.391,-355.957,0,0
1586464774,35.156,-382.324,-239.746,84.473,0,0
1586464774,-288.574,-365.723,-168.457,276.367,0,0
1586464774,-423.34,28.32,-1.953,-116.211,0,0
1586464774,-166.016,-218.75,-185.547,-396.973,0,0
1586464774,8.789,-126.465,-118.652,-45.41,0,0
1586464774,-213.379,430.664,158.691,286.621,0,0
1586464774,-427.734,-65.43,-199.707,26.855,0,0
1586464774,-258.789,-556.641,-355.957,-357.91,0,0
1586464774,-12.695,60.547,44.434,-180.664,0,0
1586464774,-122.559,382.812,172.363,266.113,0,0
1586464774,-363.77,-164.062,-123.047,156.25,0,0
1586464774,-284.18,-554.199,-348.633,-300.781,0,0
1586464774,-9.277,-517.09,-306.152,-305.664,0,0
1586464774,-36.133,25.879,18.555,165.527,0,0
1586464774,-351.074,337.402,135.254,228.027,0,0
1586464774,-347.168,-552.246,-405.762,-163.086,0,0
1586464774,-41.992,-678.223,-331.055,-344.727,0,0
1586464774,61.523,496.094,227.539,23.438,0,0
1586464774,-194.824,448.242,54.688,278.32,0,0
1586464774,-332.031,-176.27,-223.633,-72.754,0,0
1586464774,-80.078,-2.441,-204.102,-405.273,0,0
1586464774,135.254,346.68,-10.254,-83.496,0,0
1586464774,-51.758,89.844,-125,328.613,0,0
1586464774,-276.855,-294.922,-380.371,90.332,0,0
1586464774,-105.469,-378.906,-380.859,-332.52,0,0
1586464774,144.043,79.59,-71.289,-198.73,0,0
1586464774,27.832,307.129,8.789,256.348,0,0
1586464774,-253.418,-437.988,-340.332,208.984,0,0
1586464774,-178.711,-423.34,-301.758,-243.652,0,0
1586464774,110.84,211.914,-27.344,-324.219,0,0
1586464774,61.523,386.719,83.496,109.375,0,0
1586464774,-245.117,147.949,-24.414,209.473,0,0
1586464774,-278.32,2.93,-181.152,-213.379,0,0
1586464774,12.207,-125,-322.754,-414.062,0,0
1586464774,123.535,25.879,-153.809,6.836,0,0
1586464774,-149.414,122.07,-32.715,280.273,0,0
1586464774,-305.664,-347.656,-318.848,-31.25,0,0
1586464774,-77.637,-448.242,-365.723,-370.117,0,0
1586464774,154.785,-485.84,-344.238,-84.961,0,0
1586464774,-27.832,-400.391,-231.934,319.824,0,0
1586464774,-292.969,-61.523,-174.805,102.051,0,0
1586464774,-139.648,-138.672,-293.945,-320.801,0,0
1586464774,145.996,8.301,-74.219,-238.77,0,0
1586464774,68.359,465.82,145.996,217.773,0,0
1586464774,-237.793,445.801,108.887,203.613,0,0
1586464774,-191.406,-136.719,-194.336,-226.562,0,0
1586464774,139.648,-79.102,-142.09,-337.891,0,0
1586464774,165.527,573.242,205.566,99.609,0,0
1586464774,-145.02,370.117,82.031,266.602,0,0
1586464774,-227.539,-334.961,-315.918,-127.93,0,0
1586464775,51.758,-588.867,-395.508,-381.836,0,0
1586464775,184.57,79.59,16.113,-18.555,0,0
1586464775,-70.312,512.207,162.109,299.805,0,0
1586464775,-234.863,-137.695,-207.031,13.184,0,0
1586464775,-34.18,-347.656,-275.391,-379.395,0,0
1586464775,161.133,484.863,150.391,-157.227,0,0
1586464775,-12.695,759.277,208.984,289.062,0,0
1586464775,-259.277,11.719,-137.207,142.578,0,0
1586464775,-146.973,-397.949,-305.176,-294.434,0,0
1586464775,112.305,293.457,47.852,-247.559,0,0
1586464775,83.008,528.32,151.367,226.562,0,0
1586464775,-182.129,-391.602,-267.09,254.395,0,0
1586464775,-198.73,-699.707,-473.633,-205.566,0,0
1586464775,65.43,183.594,-117.676,-388.184,0,0
1586464775,129.395,593.262,70.312,80.566,0,0
1586464775,-171.875,382.324,-107.422,296.387,0,0
1586464775,-299.316,-60.059,-385.742,-92.285,0,0
1586464775,-42.48,69.824,-224.609,-382.812,0,0
1586464775,182.617,454.59,77.637,-19.043,0,0
1586464775,-15.625,250.977,62.012,354.98,0,0
1586464775,-249.023,53.711,-51.27,70.801,0,0
1586464775,-62.5,-7.812,-210.449,-348.633,0,0
1586464775,166.016,17.09,-232.422,-139.16,0,0
1586464775,6.836,-92.285,-174.805,316.895,0,0
1586464775,-297.363,138.672,3.906,145.508,0,0
1586464775,-201.66,197.754,-41.504,-317.383,0,0
1586464775,77.148,-2.441,-145.508,-310.059,0,0
1586464775,15.137,359.375,54.199,157.227,0,0
1586464775,-294.922,577.637,124.023,214.355,0,0
1586464775,-315.43,203.613,-99.121,-225.586,0,0
1586464775,-54.199,-38.086,-240.723,-404.785,0,0
1586464775,11.719,78.125,-48.828,43.457,0,0
1586464775,-226.562,9.277,-81.543,303.711,0,0
1586464775,-313.477,-225.098,-347.656,-69.824,0,0
1586464775,-71.289,-453.125,-399.414,-400.879,0,0
1586464775,67.871,-169.434,-120.605,-89.844,0,0
1586464775,-159.668,480.957,183.594,275.879,0,0
1586464775,-377.93,176.27,-61.035,58.594,0,0
1586464775,-209.473,-464.355,-363.77,-346.68,0,0
1586464775,68.359,-33.203,-44.434,-231.445,0,0
1586464775,-27.344,576.66,219.238,240.234,0,0
1586464775,-297.363,172.852,-37.598,188.965,0,0
1586464775,-217.285,-589.844,-317.871,-266.113,0,0
1586464775,75.195,-308.105,-74.707,-340.82,0,0
1586464775,92.773,549.316,255.371,125.977,0,0
1586464775,-179.199,257.324,28.32,264.16,0,0
1586464775,-231.445,-732.422,-424.805,-145.02,0,0
1586464775,32.715,-673.828,-356.934,-395.996,0,0
1586464775,158.203,260.742,97.168,-0.977,0,0
1586464775,-68.848,228.027,32.227,311.035,0,0
1586464775,-217.285,-581.543,-395.02,-18.066,0,0
1586464775,5.371,-142.09,-107.91,-416.016,0,0
1586464775,243.164,560.547,191.895,-136.719,0,0
1586464775,62.5,419.922,92.773,306.641,0,0
1586464775,-196.289,49.805,6.836,110.352,0,0
1586464775,-86.914,-217.285,-171.875,-325.195,0,0
1586464775,173.34,-3.906,-95.703,-233.398,0,0
1586464775,114.746,427.246,231.934,246.094,0,0
1586464775,-186.523,-33.203,-41.992,230.469,0,0
1586464775,-175.781,-260.254,-262.207,-235.352,0,0
1586464775,111.816,151.367,-10.742,-351.074,0,0
1586464775,167.48,250,150.391,131.836,0,0
1586464775,-90.82,243.164,126.953,302.734,0,0
1586464775,-173.34,145.996,13.184,-127.93,0,0
1586464775,74.707,-14.648,-49.805,-398.438,0,0
1586464775,248.047,84.473,49.805,-8.301,0,0
1586464775,16.602,301.27,138.184,335.449,0,0
1586464775,-179.688,174.316,30.273,28.809,0,0
1586464775,42.48,-149.902,-116.211,-366.699,0,0
1586464775,276.367,-547.363,-246.582,-103.027,0,0
1586464775,90.82,-406.25,-74.707,323.242,0,0
1586464775,-177.246,-25.391,68.848,128.906,0,0
1586464775,-74.219,-267.09,-225.098,-308.594,0,0
1586464775,207.031,-520.508,-346.191,-246.094,0,0
1586464775,157.715,262.695,123.047,211.914,0,0
1586464775,-142.578,365.234,23.438,223.633,0,0
1586464775,-158.203,-272.461,-307.129,-227.539,0,0
1586464775,108.398,27.344,-104.492,-375.488,0,0
1586464775,173.828,768.555,213.379,79.102,0,0
1586464775,-81.543,339.355,-91.797,309.57,0,0
1586464775,-192.871,-544.922,-433.105,-70.312,0,0
1586464775,31.738,-535.645,-310.059,-385.742,0,0
1586464775,186.523,-187.988,-77.148,-34.18,0,0
1586464775,-32.227,-92.773,71.777,327.637,0,0
1586464775,-223.633,-518.066,-168.945,59.57,0,0
1586464775,-36.133,-578.613,-219.727,-362.305,0,0
1586464775,214.355,166.992,118.164,-195.801,0,0
1586464775,100.586,398.438,180.176,277.344,0,0
1586464775,-130.371,-512.207,-264.648,188.965,0,0
1586464775,-29.785,-756.836,-320.801,-289.062,0,0
1586464775,254.395,-11.719,80.566,-317.383,0,0
1586464775,279.297,60.547,94.727,179.199,0,0
1586464775,28.32,-139.648,34.668,248.047,0,0
1586464775,0.488,-213.379,-6.836,-196.289,0,0
1586464775,254.395,-322.754,-174.805,-385.254,0,0
1586464775,345.703,-297.363,-102.539,55.664,0,0
1586464775,74.707,-306.641,-1.953,309.57,0,0
1586464775,-82.52,-266.602,-37.109,-87.402,0,0
1586464775,140.625,-182.129,-37.598,-439.941,0,0
1586464775,330.078,-116.699,-48.34,-102.051,0,0
1586464775,159.18,-105.469,-57.129,310.059,0,0
1586464775,-58.105,93.75,70.312,64.941,0,0
1586464775,79.102,-87.402,-30.762,-353.027,0,0
1586464775,315.43,-366.211,-102.051,-202.148,0,0
1586464775,194.336,-62.012,49.316,256.836,0,0
1586464775,-74.219,37.598,50.293,191.895,0,0
1586464775,-19.531,-475.586,-216.797,-267.09,0,0
1586464775,250,-867.188,-445.312,-305.664,0,0
1586464775,249.023,-709.473,-208.496,183.594,0,0
1586464775,-62.5,-39.551,186.523,271.484,0,0
1586464775,-113.281,-192.871,-20.996,-161.621,0,0
1586464775,147.461,-810.059,-327.637,-374.023,0,0
1586464775,229.98,-371.582,-38.086,31.25,0,0
1586464775,-22.949,360.84,249.512,300.781,0,0
1586464775,-180.176,-83.984,-15.137,-31.25,0,0
1586464775,1.465,-446.289,-152.832,-408.691,0,0
1586464775,174.805,81.543,124.512,-148.926,0,0
1586464775,11.23,384.277,191.895,279.785,0,0
1586464775,-211.426,-387.207,-240.234,109.863,0,0
1586464775,-125.488,-568.359,-228.027,-339.844,0,0
1586464775,94.727,52.734,62.012,-248.047,0,0
1586464775,34.668,211.426,99.121,257.812,0,0
1586464775,-208.008,-263.672,-198.242,236.328,0,0
1586464775,-177.734,-764.648,-479.98,-232.91,0,0
1586464775,39.551,-91.309,-41.504,-373.047,0,0
1586464775,66.406,513.184,186.523,102.539,0,0
1586464775,-186.035,140.137,-7.324,305.176,0,0
1586464775,-277.344,-396.973,-251.953,-112.793,0,0
1586464775,-26.855,-323.73,-146.973,-391.602,0,0
1586464775,121.582,254.883,169.922,11.23,0,0
1586464775,-96.191,0.977,-5.371,355.469,0,0
1586464775,-249.512,-429.199,-201.172,41.016,0,0
1586464775,-48.34,-184.082,-55.664,-360.84,0,0
1586464775,168.457,322.754,171.387,-134.277,0,0
1586464775,62.012,-162.598,-62.012,335.938,0,0
1586464775,-148.926,-733.887,-334.473,169.922,0,0
1586464775,-26.367,-490.723,-259.766,-331.543,0,0
1586464775,236.816,-294.434,-60.547,-278.809,0,0
1586464775,183.594,76.172,141.113,218.262,0,0
1586464775,-58.105,126.465,107.422,237.793,0,0
1586464775,-16.602,-141.602,-44.922,-224.609,0,0
1586464775,266.602,-213.379,-104.492,-364.746,0,0
1586464775,324.219,-246.582,-79.59,89.844,0,0
1586464775,65.918,-177.734,0.488,276.367,0,0
1586464775,12.695,10.742,60.059,-126.465,0,0
1586464775,273.438,-365.234,-278.809,-421.875,0,0
1586464775,388.672,-491.211,-282.227,-44.922,0,0
1586464775,159.668,184.57,117.676,299.316,0,0
1586464775,6.836,26.855,-224.121,14.16,0,0
1586464775,201.66,-519.043,-458.008,-389.16,0,0
1586464775,402.832,-230.469,-275.879,-182.129,0,0
1586464775,252.93,132.324,-228.516,301.27,0,0
1586464775,-15.137,-225.098,-370.605,183.594,0,0
1586464775,37.109,-447.754,-412.109,-277.344,0,0
1586464775,295.898,-310.547,-357.422,-286.621,0,0
1586464775,244.629,134.277,-76.172,184.57,0,0
1586464775,-88.867,393.066,62.5,258.789,0,0
1586464775,-107.422,-468.262,-462.402,-151.855,0,0
1586464775,131.836,-760.254,-509.277,-337.891,0,0
1586464775,172.363,403.32,105.957,56.641,0,0
1586464775,-79.102,501.953,65.43,288.574,0,0
1586464775,-192.383,-128.418,-284.668,-89.844,0,0
1586464775,21.484,-4.883,-192.871,-434.57,0,0
1586464775,178.223,552.734,122.07,-91.309,0,0
1586464775,-1.465,443.848,62.988,320.312,0,0
1586464775,-202.148,-223.145,-278.32,76.66,0,0
1586464775,-39.551,-479.98,-379.883,-373.047,0,0
1586464775,234.863,-190.918,-178.223,-208.984,0,0
1586464775,169.434,-43.945,-90.82,292.48,0,0
1586464775,-96.191,-219.727,-166.992,214.844,0,0
1586464775,-57.129,-102.051,-36.133,-268.066,0,0
1586464775,210.449,266.602,139.648,-320.801,0,0
1586464775,246.094,135.254,-29.297,188.965,0,0
1586464775,-18.066,-440.918,-173.828,299.805,0,0
1586464775,-110.352,-43.457,93.262,-187.012,0,0
1586464775,175.781,-49.805,-99.121,-420.41,0,0
1586464775,295.898,-34.668,3.418,-10.254,0,0
1586464775,73.73,312.988,181.152,286.621,0,0
1586464775,-59.082,0.488,-35.645,-37.598,0,0
1586464775,99.609,-224.121,-152.832,-397.461,0,0
1586464775,286.133,-114.746,-85.449,-125.488,0,0
1586464775,122.559,178.711,98.145,289.551,0,0
1586464775,-135.742,445.801,156.25,122.07,0,0
1586464775,-32.715,286.621,38.574,-340.332,0,0
1586464775,200.684,-281.738,-201.172,-229.004,0,0
1586464775,93.75,-37.109,-13.672,270.996,0,0
1586464775,-182.129,648.926,233.398,216.797,0,0
1586464775,-168.457,229.004,-21.484,-245.117,0,0
1586464775,59.082,195.312,-17.09,-332.031,0,0
1586464775,44.434,672.363,176.758,111.328,0,0
1586464775,-240.723,451.66,109.863,293.457,0,0
1586464775,-305.176,-135.254,-131.348,-80.078,0,0
1586464775,-90.332,-288.086,-121.582,-383.301,0,0
1586464775,27.344,342.285,210.938,-8.301,0,0
1586464775,-193.359,589.844,253.418,329.102,0,0
1586464775,-344.238,-200.195,-158.203,57.129,0,0
1586464775,-166.504,-846.191,-436.035,-315.43,0,0
1586464775,8.301,9.277,116.699,-130.371,0,0
1586464775,-131.836,682.129,359.863,299.316,0,0
1586464775,-347.168,1.953,-40.527,167.969,0,0
1586464775,-243.652,-464.844,-195.801,-299.316,0,0
1586464775,-4.883,172.852,137.207,-274.414,0,0
1586464775,-28.809,409.668,221.191,212.402,0,0
1586464775,-253.906,-408.691,-126.953,256.836,0,0
1586464775,-243.652,-728.516,-226.074,-202.148,0,0
1586464775,5.859,-142.578,70.801,-380.371,0,0
1586464775,97.168,98.633,124.023,71.777,0,0
1586464775,-128.906,-27.344,89.844,287.598,0,0
1586464775,-230.469,-154.785,42.48,-107.91,0,0
1586464775,-11.719,54.688,96.191,-437.012,0,0
1586464775,150.879,205.078,104.98,-79.59,0,0
1586464775,-26.367,93.262,78.613,291.992,0,0
1586464775,-198.73,70.801,71.289,-1.465,0,0
1586464775,-45.898,13.672,21.973,-409.18,0,0
1586464775,175.781,-104.004,-15.625,-196.289,0,0
1586464775,70.801,-265.625,-60.059,262.207,0,0
1586464775,-175.781,-0.488,32.227,145.02,0,0
1586464775,-110.84,132.324,29.785,-303.223,0,0
1586464775,118.164,-200.684,-187.5,-305.176,0,0
1586464775,69.336,-91.309,-126.465,149.902,0,0
1586464775,-215.82,270.02,108.887,194.824,0,0
1586464775,-237.793,135.254,37.109,-249.023,0,0
1586464775,4.395,-314.453,-152.344,-427.734,0,0
1586464775,76.172,-313.965,-94.727,8.301,0,0
1586464775,-178.711,98.633,82.52,253.418,0,0
1586464775,-300.781,-192.383,-181.641,-99.121,0,0
1586464775,-62.988,-539.062,-387.695,-432.617,0,0
1586464775,92.285,-334.961,-225.586,-123.047,0,0
1586464775,-112.305,184.082,95.703,258.301,0,0
1586464775,-312.5,118.652,-44.922,19.531,0,0
1586464775,-164.062,-748.047,-530.273,-383.301,0,0
1586464775,56.152,-520.02,-256.836,-238.281,0,0
1586464775,-57.129,414.062,174.316,209.473,0,0
1586464775,-301.758,140.625,-115.723,149.414,0,0
1586464775,-233.887,-455.566,-448.242,-302.246,0,0
1586464775,17.09,-375.488,-399.902,-351.074,0,0
1586464775,12.207,148.926,-67.383,112.793,0,0
1586464775,-253.906,-30.273,-201.66,242.676,0,0
1586464775,-312.988,-812.012,-613.281,-166.992,0,0
1586464775,-104.98,-656.25,-474.121,-412.598,0,0
1586464775,-16.113,27.344,-263.184,-5.859,0,0
1586464775,-229.004,-260.254,-416.504,308.594,0,0
1586464775,-389.16,-781.738,-577.148,-11.23,0,0
1586464775,-232.422,-370.117,-367.676,-414.062,0,0
1586464775,-60.059,41.992,-231.445,-149.414,0,0
1586464775,-228.027,-89.355,-210.449,289.551,0,0
1586464775,-436.035,-321.289,-343.75,81.543,0,0
1586464775,-309.082,-539.062,-456.543,-366.211,0,0
1586464775,-46.875,-544.434,-349.121,-259.766,0,0
1586464775,-93.75,-146.484,-222.168,190.918,0,0
1586464775,-326.172,-298.828,-358.887,168.945,0,0
1586464775,-287.598,-551.27,-434.082,-267.578,0,0
1586464775,-41.504,-137.207,-233.398,-373.535,0,0
1586464775,9.766,-320.801,-278.32,113.281,0,0
1586464775,-266.113,-555.176,-351.074,272.949,0,0
1586464775,-363.281,-324.219,-333.008,-154.785,0,0
1586464776,-133.789,-559.082,-431.641,-411.133,0,0
1586464776,-34.668,-228.027,-144.531,-45.41,0,0
1586464776,-253.906,197.754,114.746,267.578,0,0
1586464776,-394.531,61.035,-11.719,-32.227,0,0
1586464776,-199.219,-446.289,-355.957,-395.508,0,0
1586464776,4.883,-205.566,-185.547,-161.621,0,0
1586464776,-118.652,165.039,98.633,259.766,0,0
1586464776,-324.219,-180.664,-147.461,113.281,0,0
1586464776,-210.938,-633.789,-492.676,-334.473,0,0
1586464776,16.113,-758.789,-450.684,-285.156,0,0
1586464776,-49.316,106.445,79.102,172.852,0,0
1586464776,-280.762,430.664,136.719,198.242,0,0
1586464776,-250.977,-217.285,-163.086,-233.398,0,0
1586464776,-1.465,-235.84,-157.227,-381.836,0,0
1586464776,66.895,305.664,109.863,62.012,0,0
1586464776,-137.207,117.676,0.977,291.016,0,0
1586464776,-205.078,-391.602,-289.062,-87.402,0,0
1586464776,2.441,-207.52,-164.551,-394.531,0,0
1586464776,167.969,163.574,27.832,-20.996,0,0
1586464776,12.207,161.133,69.824,344.238,0,0
1586464776,-141.113,-487.305,-283.691,76.172,0,0
1586464776,28.32,-674.316,-401.855,-346.68,0,0
1586464776,241.211,340.332,119.629,-183.105,0,0
1586464776,148.926,559.57,136.719,290.039,0,0
1586464776,-60.547,48.34,-110.352,174.805,0,0
1586464776,30.273,-82.031,-149.414,-291.992,0,0
1586464776,287.109,221.191,38.086,-291.016,0,0
1586464776,289.062,375,116.211,187.5,0,0
1586464776,74.219,8.789,-142.578,273.438,0,0
1586464776,73.73,-430.664,-372.559,-173.828,0,0
1586464776,274.902,-504.395,-360.352,-375.488,0,0
1586464776,318.848,-191.406,-166.992,60.059,0,0
1586464776,95.703,-427.246,-208.984,313.965,0,0
1586464776,-28.32,-421.875,-304.199,-82.52,0,0
1586464776,147.949,-23.926,-246.582,-432.129,0,0
1586464776,278.809,137.207,-72.266,-89.844,0,0
1586464776,92.773,233.887,49.805,298.828,0,0
1586464776,-109.375,197.266,-8.301,53.223,0,0
1586464776,3.418,-100.098,-277.344,-369.141,0,0
1586464776,221.191,-236.816,-316.895,-202.148,0,0
1586464776,109.375,8.789,-37.109,262.207,0,0
1586464776,-170.898,189.941,51.27,166.992,0,0
1586464776,-132.324,-373.535,-315.918,-273.438,0,0
1586464776,91.309,-518.066,-344.238,-317.871,0,0
1586464776,58.594,-5.371,11.719,136.23,0,0
1586464776,-222.656,159.668,118.164,247.07,0,0
1586464776,-275.879,-75.195,-67.871,-165.039,0,0
1586464776,-27.344,-363.77,-209.473,-363.77,0,0
1586464776,63.477,39.062,41.016,28.32,0,0
1586464776,-184.082,361.816,201.172,303.223,0,0
1586464776,-320.801,-56.152,-38.086,-43.457,0,0
1586464776,-118.652,-782.227,-368.164,-402.344,0,0
1586464776,47.363,-301.758,3.418,-132.324,0,0
1586464776,-107.91,338.867,222.656,265.137,0,0
1586464776,-277.344,-344.238,-230.469,92.285,0,0
1586464776,-142.09,-850.098,-434.082,-339.844,0,0
1586464776,53.711,-176.27,11.719,-254.883,0,0
1586464776,-31.25,490.234,266.113,208.008,0,0
1586464776,-229.492,-129.883,-147.461,196.289,0,0
1586464776,-191.895,-790.039,-458.008,-256.836,0,0
1586464776,0.488,-68.848,-12.207,-391.602,0,0
1586464776,25.879,639.648,229.98,77.148,0,0
1586464776,-170.898,368.652,43.945,247.07,0,0
1586464776,-211.426,-377.93,-329.59,-166.992,0,0
1586464776,-20.508,-342.773,-272.949,-453.125,0,0
