timestamps,TP9,AF7,AF8,TP10,Right AUX
1587068788.721,-62.500,-141.602,-199.219,-41.504,0.000
1587068788.725,58.594,481.445,197.266,-21.484,0.000
1587068788.729,26.367,290.039,44.922,3.418,0.000
1587068788.733,-102.051,-265.625,-316.406,-10.254,0.000
1587068788.737,-91.309,-242.676,-337.891,-28.320,0.000
1587068788.741,41.992,23.438,-83.008,-19.531,0.000
1587068788.745,54.688,109.375,17.090,-3.418,0.000
1587068788.749,-76.660,-204.590,-291.016,-11.230,0.000
1587068788.753,-113.770,-344.727,-383.789,-29.785,0.000
1587068788.757,5.371,209.961,56.152,-18.555,0.000
1587068788.760,77.148,134.277,-22.461,-1.465,0.000
1587068788.764,-20.996,-441.406,-454.102,-3.418,0.000
1587068788.768,-130.371,-483.398,-459.473,-27.344,0.000
1587068788.772,-51.270,-235.840,-316.406,-40.039,0.000
1587068788.776,49.805,268.066,87.891,-32.227,0.000
1587068788.780,-7.812,382.812,169.434,-11.230,0.000
1587068788.784,-97.656,-62.988,-230.469,-17.090,0.000
1587068788.788,-65.918,-379.395,-417.480,-38.574,0.000
1587068788.792,37.109,96.680,-26.367,-42.969,0.000
1587068788.796,25.391,500.000,212.402,-25.879,0.000
1587068788.800,-89.844,139.160,-87.402,-25.879,0.000
1587068788.803,-85.938,-267.578,-362.793,-38.574,0.000
1587068788.807,23.438,-326.172,-265.137,-36.621,0.000
1587068788.811,40.527,309.082,132.324,-34.180,0.000
1587068788.815,-68.848,374.023,61.523,-30.762,0.000
1587068788.819,-116.699,-323.730,-384.277,-40.039,0.000
1587068788.823,-16.113,-112.305,-195.801,-49.316,0.000
1587068788.827,70.801,443.359,192.383,-26.367,0.000
1587068788.831,-9.277,223.145,31.738,-4.883,0.000
1587068788.835,-115.723,-653.809,-526.367,-20.996,0.000
1587068788.839,-55.176,-604.004,-379.883,-39.062,0.000
1587068788.842,45.898,507.812,251.953,-33.691,0.000
1587068788.846,-5.859,502.441,116.699,-11.719,0.000
1587068788.850,-111.816,-300.293,-268.066,-4.395,0.000
1587068788.854,-60.059,-302.246,-237.793,-13.184,0.000
1587068788.858,60.547,453.613,188.477,-28.320,0.000
1587068788.862,37.109,312.988,40.039,-16.113,0.000
1587068788.866,-86.426,-340.332,-352.539,-19.531,0.000
1587068788.870,-96.191,-341.797,-319.336,-39.062,0.000
1587068788.874,16.602,235.840,52.246,-35.156,0.000
1587068788.878,58.594,564.453,222.168,-17.090,0.000
1587068788.882,-30.762,-119.141,-197.266,-4.395,0.000
1587068788.885,-101.074,-623.535,-474.609,-23.438,0.000
1587068788.889,-23.438,-94.238,-116.211,-32.715,0.000
1587068788.893,64.941,426.270,198.730,-23.926,0.000
1587068788.897,-5.859,116.211,-28.809,-6.836,0.000
1587068788.901,-113.770,-272.461,-348.145,-24.414,0.000
1587068788.905,-51.758,-71.289,-209.473,-40.527,0.000
1587068788.909,65.918,252.930,56.152,-28.320,0.000
1587068788.913,14.160,14.648,-120.605,-11.719,0.000
1587068788.917,-110.840,-153.320,-252.930,-18.555,0.000
1587068788.921,-95.703,-32.715,-219.727,-42.969,0.000
1587068788.925,18.555,173.828,-13.672,-42.480,0.000
1587068788.928,19.531,114.258,-4.395,-22.949,0.000
1587068788.932,-90.820,-268.066,-282.715,-16.113,0.000
1587068788.936,-109.375,-247.070,-291.504,-31.250,0.000
1587068788.940,-4.883,-173.340,-269.531,-26.367,0.000
1587068788.944,28.809,-242.188,-213.867,-20.020,0.000
1587068788.948,-79.102,64.941,17.090,-42.480,0.000
1587068788.952,-140.625,-110.840,-249.023,-57.617,0.000
1587068788.956,-44.434,-142.090,-264.160,-56.641,0.000
1587068788.960,38.574,319.336,73.730,-38.086,0.000
1587068788.964,-41.992,359.863,108.887,-34.668,0.000
1587068788.967,-132.812,-193.848,-256.836,-43.457,0.000
1587068788.971,-76.172,-319.336,-363.281,-44.922,0.000
1587068788.975,23.926,107.910,-5.859,-46.387,0.000
1587068788.979,-1.465,296.387,95.215,-24.902,0.000
1587068788.983,-97.168,-153.320,-289.062,-16.113,0.000
1587068788.987,-89.844,-459.961,-400.879,-31.738,0.000
1587068788.991,5.859,209.961,64.941,-58.594,0.000
1587068788.995,30.273,681.641,266.602,-55.176,0.000
1587068788.999,-76.172,-70.801,-206.543,-33.691,0.000
1587068789.003,-120.117,-771.484,-575.195,-38.086,0.000
1587068789.007,-13.672,-64.453,-79.590,-43.945,0.000
1587068789.010,38.086,698.730,322.754,-29.297,0.000
1587068789.014,-61.523,111.816,-140.625,-19.531,0.000
1587068789.018,-121.582,-754.883,-637.207,-28.809,0.000
1587068789.022,-46.875,-373.047,-335.938,-40.039,0.000
1587068789.026,31.738,360.352,140.137,-36.133,0.000
1587068789.030,-9.766,20.020,-97.168,-9.277,0.000
1587068789.034,-112.793,-733.887,-560.059,-20.996,0.000
1587068789.038,-80.566,-179.688,-171.875,-47.852,0.000
1587068789.042,34.180,508.301,189.453,-42.969,0.000
1587068789.046,2.441,358.887,75.684,-32.227,0.000
1587068789.050,-110.352,-240.723,-291.016,-39.551,0.000
1587068789.053,-120.117,-265.137,-307.617,-76.172,0.000
1587068789.057,-10.254,246.582,8.789,-68.359,0.000
1587068789.061,34.180,320.312,120.117,-32.715,0.000
1587068789.065,-80.078,-8.789,-96.680,-32.715,0.000
1587068789.069,-140.625,-413.086,-416.992,-62.012,0.000
1587068789.073,-29.785,-138.672,-158.203,-65.430,0.000
1587068789.077,53.223,-53.711,-94.727,-25.391,0.000
1587068789.081,-35.645,-186.035,-255.371,-8.789,0.000
1587068789.085,-135.254,-61.523,-241.211,-48.340,0.000
1587068789.089,-74.707,-87.891,-209.961,-63.477,0.000
1587068789.092,36.621,343.750,111.328,-38.086,0.000
1587068789.096,0.977,458.496,133.789,-17.578,0.000
1587068789.100,-127.441,-41.016,-163.574,-44.434,0.000
1587068789.104,-105.957,-276.855,-347.656,-64.941,0.000
1587068789.108,21.973,80.078,-70.312,-42.969,0.000
1587068789.112,15.137,385.254,170.410,-27.832,0.000
1587068789.116,-111.816,-252.930,-259.766,-38.086,0.000
1587068789.120,-115.723,-857.422,-601.074,-42.480,0.000
1587068789.124,6.348,-394.043,-232.422,-46.387,0.000
1587068789.128,28.809,563.477,266.113,-49.805,0.000
1587068789.132,-74.707,320.801,26.367,-40.039,0.000
1587068789.135,-131.836,-422.852,-391.602,-48.828,0.000
1587068789.139,-25.879,-179.199,-160.156,-39.062,0.000
1587068789.143,46.387,374.512,218.750,-36.621,0.000
1587068789.147,-56.641,46.875,-108.887,-43.457,0.000
1587068789.151,-146.973,-437.500,-439.453,-47.363,0.000
1587068789.155,-68.848,-103.516,-145.508,-49.805,0.000
1587068789.159,31.738,458.008,163.574,-45.898,0.000
1587068789.163,-5.371,254.395,33.203,-19.531,0.000
1587068789.167,-100.586,-640.625,-463.379,-7.324,0.000
1587068789.171,-84.961,-469.238,-316.406,-31.250,0.000
1587068789.175,22.949,532.715,222.656,-39.551,0.000
1587068789.178,29.785,424.805,106.445,-21.484,0.000
1587068789.182,-101.562,-180.176,-254.883,-27.832,0.000
1587068789.186,-129.395,-305.664,-360.352,-50.781,0.000
1587068789.190,-6.348,182.617,-24.414,-50.293,0.000
1587068789.194,52.246,395.508,128.906,-19.043,0.000
1587068789.198,-55.176,11.230,-54.688,-19.531,0.000
1587068789.202,-135.742,-216.309,-259.277,-40.039,0.000
1587068789.206,-24.414,-0.977,-91.309,-29.297,0.000
1587068789.210,64.453,18.066,-40.039,-20.996,0.000
1587068789.214,-25.391,-217.773,-209.961,-2.930,0.000
1587068789.217,-126.953,-153.320,-183.105,-29.785,0.000
1587068789.221,-46.875,43.945,-78.613,-38.574,0.000
1587068789.225,70.801,181.641,94.238,-17.578,0.000
1587068789.229,22.949,265.137,116.211,-21.484,0.000
1587068789.233,-97.168,-33.203,-161.133,-20.020,0.000
1587068789.237,-84.473,-381.348,-389.160,-31.250,0.000
1587068789.241,34.180,-276.367,-269.043,-25.391,0.000
1587068789.245,41.504,-89.844,-100.586,-7.324,0.000
1587068789.249,-83.008,106.445,-43.945,-19.531,0.000
1587068789.253,-104.492,-130.859,-309.082,-29.297,0.000
1587068789.257,20.996,-50.293,-179.199,-11.719,0.000
1587068789.260,69.336,335.449,118.652,13.184,0.000
1587068789.264,-42.480,335.938,116.211,-3.418,0.000
1587068789.268,-110.840,-179.199,-263.184,-26.367,0.000
1587068789.272,-12.695,-494.629,-358.887,-21.484,0.000
1587068789.276,74.219,115.723,62.012,-6.348,0.000
1587068789.280,-1.953,520.508,209.961,-0.977,0.000
1587068789.284,-122.070,-209.961,-265.625,-25.879,0.000
1587068789.288,-67.383,-382.812,-286.621,-43.945,0.000
1587068789.292,38.574,383.789,211.426,-35.645,0.000
1587068789.296,0.488,420.898,112.305,-19.531,0.000
1587068789.300,-96.191,-416.992,-404.297,-26.367,0.000
1587068789.303,-103.027,-743.164,-568.848,-26.855,0.000
1587068789.307,-8.789,125.000,0.000,-39.551,0.000
1587068789.311,24.902,708.984,293.945,-55.176,0.000
1587068789.315,-81.055,-183.105,-250.977,-26.855,0.000
1587068789.319,-131.348,-782.227,-556.152,-26.367,0.000
1587068789.323,-24.414,136.230,36.133,-43.945,0.000
1587068789.327,51.270,662.598,282.715,-31.738,0.000
1587068789.331,-51.758,-35.156,-150.391,-35.156,0.000
1587068789.335,-151.855,-542.480,-455.566,-48.340,0.000
1587068789.339,-73.730,-6.836,-81.055,-46.387,0.000
1587068789.342,31.738,469.238,199.707,-38.086,0.000
1587068789.346,-26.855,204.102,2.441,-34.180,0.000
1587068789.350,-142.090,-466.309,-361.328,-43.945,0.000
1587068789.354,-104.492,-445.801,-377.441,-54.199,0.000
1587068789.358,23.438,98.633,-44.922,-38.086,0.000
1587068789.362,17.090,-99.121,-91.797,-18.066,0.000
1587068789.366,-126.953,-408.691,-354.004,-38.574,0.000
1587068789.370,-126.953,-166.504,-294.434,-53.223,0.000
1587068789.374,2.441,82.031,-55.176,-43.457,0.000
1587068789.378,36.621,281.738,95.703,-19.531,0.000
1587068789.382,-63.477,197.266,47.363,-11.230,0.000
1587068789.385,-118.164,-92.773,-150.391,-23.926,0.000
1587068789.389,-9.766,-125.977,-149.414,-24.902,0.000
1587068789.393,57.129,252.930,109.375,-10.254,0.000
1587068789.397,-28.809,161.133,-43.945,-4.395,0.000
1587068789.401,-120.117,-313.965,-366.699,-33.691,0.000
1587068789.405,-48.828,-422.363,-387.695,-28.320,0.000
1587068789.409,58.594,-41.504,-106.445,-15.137,0.000
1587068789.413,-10.742,291.992,125.977,-23.926,0.000
1587068789.417,-120.117,-124.512,-212.891,-22.949,0.000
1587068789.421,-79.590,-548.340,-431.641,-30.273,0.000
1587068789.425,36.133,-194.824,-87.402,-37.598,0.000
1587068789.428,28.809,381.348,198.242,-32.715,0.000
1587068789.432,-89.355,-1.953,-184.082,-33.691,0.000
1587068789.436,-102.051,-510.254,-488.281,-42.480,0.000
1587068789.440,5.371,-53.223,-60.547,-45.410,0.000
1587068789.444,40.527,297.363,124.023,-30.762,0.000
1587068789.448,-58.105,-90.332,-202.148,-23.926,0.000
1587068789.452,-108.398,-460.449,-380.371,-30.762,0.000
1587068789.456,-34.668,4.395,5.371,-45.410,0.000
1587068789.460,34.180,644.043,267.090,-44.922,0.000
1587068789.464,-48.340,257.812,3.418,-35.156,0.000
1587068789.467,-144.043,-603.027,-422.852,-46.387,0.000
1587068789.471,-83.496,-330.566,-241.699,-50.293,0.000
1587068789.475,27.832,624.512,263.184,-37.598,0.000
1587068789.479,3.906,334.961,37.598,-18.066,0.000
1587068789.483,-116.699,-416.504,-398.438,-29.785,0.000
1587068789.487,-100.586,-216.309,-259.766,-48.828,0.000
1587068789.491,19.043,246.582,88.379,-38.574,0.000
1587068789.495,18.555,148.438,-9.766,-13.184,0.000
1587068789.499,-95.703,-589.355,-429.688,-9.766,0.000
1587068789.503,-126.953,-437.988,-325.195,-40.039,0.000
1587068789.507,-13.672,321.289,65.430,-43.945,0.000
1587068789.510,49.316,238.281,38.574,-20.020,0.000
1587068789.514,-49.316,-321.777,-364.746,-19.531,0.000
1587068789.518,-123.047,-393.066,-414.551,-38.086,0.000
1587068789.522,-45.410,-72.754,-164.062,-43.945,0.000
1587068789.526,39.551,364.746,180.176,-50.293,0.000
1587068789.530,-23.926,182.617,13.672,-41.992,0.000
1587068789.534,-120.117,-207.031,-347.168,-35.156,0.000
1587068789.538,-67.383,-262.207,-354.004,-42.480,0.000
1587068789.542,42.480,-144.531,-173.340,-37.598,0.000
1587068789.546,21.973,66.406,-6.348,-20.996,0.000
1587068789.550,-111.328,108.887,-73.242,-40.527,0.000
1587068789.553,-110.352,-108.398,-320.312,-53.223,0.000
1587068789.557,15.137,149.902,-85.938,-45.898,0.000
1587068789.561,30.273,450.684,188.965,-19.043,0.000
1587068789.565,-98.633,112.793,-74.707,-25.391,0.000
1587068789.569,-148.926,-386.719,-418.945,-62.012,0.000
1587068789.573,-31.738,-82.520,-146.973,-56.152,0.000
1587068789.577,42.480,528.320,231.934,-32.227,0.000
1587068789.581,-59.570,354.980,109.375,-35.156,0.000
1587068789.585,-140.137,-555.176,-419.922,-48.828,0.000
1587068789.589,-53.711,-736.816,-500.000,-40.039,0.000
1587068789.592,34.668,273.438,118.652,-29.785,0.000
1587068789.596,-17.090,508.789,149.902,-17.090,0.000
1587068789.600,-109.863,-465.820,-426.270,-9.766,0.000
1587068789.604,-68.359,-548.340,-401.855,-26.367,0.000
1587068789.608,34.180,416.992,150.879,-40.039,0.000
1587068789.612,13.672,333.008,59.082,-27.832,0.000
1587068789.616,-99.609,-283.691,-299.316,-33.691,0.000
1587068789.620,-92.773,-250.977,-274.414,-39.062,0.000
1587068789.624,22.949,287.598,82.520,-38.086,0.000
1587068789.628,48.340,580.566,208.008,-38.574,0.000
1587068789.632,-53.223,-119.629,-217.773,-19.043,0.000
1587068789.635,-107.422,-561.523,-430.664,-24.414,0.000
1587068789.639,-14.160,95.703,-26.855,-44.434,0.000
1587068789.643,50.293,487.793,184.570,-41.992,0.000
1587068789.647,-41.992,-81.543,-149.414,-27.344,0.000
1587068789.651,-139.160,-373.535,-362.793,-31.738,0.000
1587068789.655,-60.547,68.359,-89.355,-38.574,0.000
1587068789.659,48.828,334.473,121.094,-37.109,0.000
1587068789.663,2.441,36.621,-51.758,-30.273,0.000
1587068789.667,-113.770,-166.016,-202.148,-31.738,0.000
1587068789.671,-90.332,-112.793,-246.094,-52.246,0.000
1587068789.675,20.508,192.383,25.391,-50.293,0.000
1587068789.678,18.066,111.328,-4.883,-20.020,0.000
1587068789.682,-91.797,-271.484,-291.504,-22.949,0.000
1587068789.686,-99.609,-177.734,-263.672,-42.969,0.000
1587068789.690,13.184,-163.086,-262.207,-27.832,0.000
1587068789.694,38.574,-118.164,-135.254,-12.695,0.000
1587068789.698,-71.777,119.629,34.180,-33.691,0.000
1587068789.702,-122.559,-194.824,-313.965,-53.711,0.000
1587068789.706,-24.902,-205.078,-318.848,-44.922,0.000
1587068789.710,60.059,221.191,66.895,-21.484,0.000
1587068789.714,-21.973,399.902,178.223,-15.137,0.000
1587068789.717,-126.465,-74.219,-178.223,-41.016,0.000
1587068789.721,-59.570,-256.348,-284.668,-50.293,0.000
1587068789.725,39.062,103.027,21.973,-42.480,0.000
1587068789.729,-0.488,159.668,69.824,-39.551,0.000
1587068789.733,-110.840,-134.766,-204.102,-39.551,0.000
1587068789.737,-83.984,-794.434,-547.852,-21.484,0.000
1587068789.741,34.668,-295.410,-156.738,-21.484,0.000
1587068789.745,23.926,741.211,315.918,-38.086,0.000
1587068789.749,-83.496,91.797,-146.973,-33.203,0.000
1587068789.753,-100.098,-412.109,-412.109,-36.621,0.000
1587068789.757,21.484,258.789,70.312,-34.180,0.000
1587068789.760,70.801,565.430,225.098,-18.555,0.000
1587068789.764,-41.992,-99.121,-213.379,-14.160,0.000
1587068789.768,-121.094,-440.430,-446.289,-41.992,0.000
1587068789.772,-36.133,-97.168,-147.461,-54.688,0.000
1587068789.776,54.688,300.781,178.223,-40.039,0.000
1587068789.780,-13.184,-66.895,-108.398,-31.738,0.000
1587068789.784,-106.934,-710.938,-519.043,-29.297,0.000
1587068789.788,-58.594,-93.262,-100.586,-30.273,0.000
1587068789.792,38.574,606.445,274.902,-41.016,0.000
1587068789.796,-2.930,297.363,36.621,-48.828,0.000
1587068789.800,-108.398,-439.453,-412.109,-50.293,0.000
1587068789.803,-91.797,-300.293,-299.316,-61.523,0.000
1587068789.807,10.742,321.777,91.309,-73.730,0.000
1587068789.811,25.879,422.852,203.613,-59.570,0.000
1587068789.815,-85.449,-17.578,-119.629,-59.570,0.000
1587068789.819,-118.164,-395.508,-376.465,-74.219,0.000
1587068789.823,-1.465,-151.855,-159.668,-65.918,0.000
1587068789.827,51.758,180.664,67.871,-50.781,0.000
1587068789.831,-52.734,137.207,43.945,-45.410,0.000
1587068789.835,-126.953,-161.133,-259.766,-55.664,0.000
1587068789.839,-32.715,-179.199,-297.852,-46.875,0.000
1587068789.842,72.266,76.172,-44.922,-14.648,0.000
1587068789.846,4.883,218.750,88.867,-4.883,0.000
1587068789.850,-114.258,-65.918,-147.949,-38.574,0.000
1587068789.854,-80.566,-293.457,-370.117,-46.387,0.000
1587068789.858,26.367,-106.934,-104.980,-38.574,0.000
1587068789.862,0.977,324.707,172.852,-38.574,0.000
1587068789.866,-111.328,-141.113,-238.281,-41.992,0.000
1587068789.870,-105.469,-654.785,-530.762,-53.223,0.000
1587068789.874,9.766,-600.098,-456.055,-38.086,0.000
1587068789.878,26.367,106.934,-9.766,-32.227,0.000
1587068789.882,-73.730,200.684,-92.285,-38.086,0.000
1587068789.885,-115.723,-502.930,-480.957,-32.715,0.000
1587068789.889,-12.695,-51.758,-92.285,-35.156,0.000
1587068789.893,68.359,529.297,197.266,-21.973,0.000
1587068789.897,-12.695,254.395,4.883,-15.137,0.000
1587068789.901,-111.816,-223.633,-275.879,-37.109,0.000
1587068789.905,-55.664,-16.113,-91.797,-50.781,0.000
1587068789.909,42.969,562.988,243.652,-42.969,0.000
1587068789.913,-12.695,333.008,83.496,-26.367,0.000
1587068789.917,-111.328,-670.898,-510.742,-16.113,0.000
1587068789.921,-82.520,-630.371,-410.156,-29.785,0.000
1587068789.925,22.949,517.090,238.281,-45.898,0.000
1587068789.928,21.973,611.328,221.191,-17.090,0.000
1587068789.932,-85.938,-12.207,-135.254,-0.977,0.000
1587068789.936,-85.449,-267.090,-332.031,-16.602,0.000
1587068789.940,19.043,128.906,22.949,-29.297,0.000
1587068789.944,39.551,390.625,166.016,-37.109,0.000
1587068789.948,-72.754,-9.277,-56.152,-33.691,0.000
1587068789.952,-135.254,-241.211,-215.332,-46.387,0.000
1587068789.956,-29.785,114.746,-32.227,-53.223,0.000
1587068789.960,65.430,244.629,69.336,-21.484,0.000
1587068789.964,-33.691,-147.949,-95.703,-11.230,0.000
1587068789.967,-146.973,-150.391,-54.199,-46.875,0.000
1587068789.971,-72.266,44.922,15.137,-61.035,0.000
1587068789.975,45.410,110.352,49.805,-47.852,0.000
1587068789.979,8.789,3.418,-53.223,-16.113,0.000
1587068789.983,-114.746,-221.191,-259.277,-20.996,0.000
1587068789.987,-85.449,-399.902,-381.348,-43.945,0.000
1587068789.991,42.480,85.449,69.824,-45.410,0.000
1587068789.995,47.363,282.715,125.488,-36.133,0.000
1587068789.999,-76.660,-180.664,-261.230,-31.738,0.000
1587068790.003,-102.051,-318.359,-337.891,-51.758,0.000
1587068790.007,15.137,-146.973,-208.008,-40.527,0.000
1587068790.010,61.523,280.273,78.613,-16.113,0.000
1587068790.014,-47.852,293.457,83.008,-29.297,0.000
1587068790.018,-118.164,-253.418,-284.180,-42.969,0.000
1587068790.022,-14.160,-418.457,-318.848,-26.367,0.000
1587068790.026,87.891,221.191,112.305,-6.836,0.000
1587068790.030,12.695,403.809,137.695,11.719,0.000
1587068790.034,-100.586,-376.953,-387.207,4.395,0.000
1587068790.038,-66.406,-413.574,-359.863,-37.109,0.000
1587068790.042,33.691,368.164,158.691,-41.992,0.000
1587068790.046,10.742,468.750,156.250,-13.184,0.000
1587068790.050,-103.516,-302.734,-276.367,-17.578,0.000
1587068790.053,-86.914,-718.262,-471.191,-34.180,0.000
1587068790.057,14.160,-110.352,-90.820,-37.598,0.000
1587068790.061,26.367,349.121,177.246,-25.391,0.000
1587068790.065,-61.035,-82.031,-96.191,5.371,0.000
1587068790.069,-92.773,-427.734,-382.324,-0.977,0.000
1587068790.073,-2.930,151.855,-19.043,-38.086,0.000
1587068790.077,49.805,637.695,302.246,-28.320,0.000
1587068790.081,-40.039,-236.816,-219.238,-0.488,0.000
1587068790.085,-123.047,-828.613,-579.590,-15.137,0.000
1587068790.089,-48.340,4.395,-64.941,-39.062,0.000
1587068790.092,54.688,441.406,177.734,-35.156,0.000
1587068790.096,-11.230,160.645,14.160,-13.184,0.000
1587068790.100,-112.793,-458.008,-344.727,-8.301,0.000
1587068790.104,-63.965,-327.148,-239.746,-13.672,0.000
1587068790.108,37.109,431.152,191.895,-28.809,0.000
1587068790.112,8.789,-129.883,-182.129,-29.785,0.000
1587068790.116,-113.281,-597.656,-453.613,-33.691,0.000
1587068790.120,-108.398,13.184,-83.496,-50.293,0.000
1587068790.124,0.488,269.043,130.859,-57.617,0.000
1587068790.128,25.879,351.562,160.645,-30.273,0.000
1587068790.132,-73.242,127.441,24.902,-8.789,0.000
1587068790.135,-118.652,-163.574,-213.379,-36.621,0.000
1587068790.139,-11.719,-81.055,-130.371,-43.457,0.000
1587068790.143,42.480,312.500,194.336,-40.039,0.000
1587068790.147,-41.504,20.996,-99.609,-37.109,0.000
1587068790.151,-130.859,-496.582,-421.387,-51.270,0.000
1587068790.155,-58.594,-401.855,-338.867,-45.410,0.000
1587068790.159,48.340,-179.688,-151.855,-23.438,0.000
1587068790.163,-20.508,234.375,108.398,-28.809,0.000
1587068790.167,-117.676,-132.324,-256.348,-34.180,0.000
1587068790.171,-64.453,-391.113,-383.301,-15.625,0.000
1587068790.175,51.270,28.320,-40.527,-18.555,0.000
1587068790.178,27.344,334.473,157.227,-30.762,0.000
1587068790.182,-96.191,-28.320,-166.504,-32.715,0.000
1587068790.186,-114.746,-396.973,-421.387,-42.969,0.000
1587068790.190,-8.789,140.137,17.090,-49.805,0.000
1587068790.194,16.602,420.410,205.566,-41.504,0.000
1587068790.198,-85.449,-73.730,-129.395,-39.062,0.000
1587068790.202,-130.371,-450.684,-398.926,-54.199,0.000
1587068790.206,-39.062,-14.648,-91.797,-52.246,0.000
1587068790.210,41.016,646.973,277.832,-37.598,0.000
1587068790.214,-36.621,287.598,0.000,-24.902,0.000
1587068790.217,-125.977,-694.824,-515.137,-29.297,0.000
1587068790.221,-68.848,-303.711,-165.039,-55.176,0.000
1587068790.225,33.203,607.910,263.184,-44.922,0.000
1587068790.229,12.207,300.293,12.695,-2.930,0.000
1587068790.233,-97.168,-325.195,-352.539,-16.602,0.000
1587068790.237,-78.125,-170.898,-189.941,-46.387,0.000
1587068790.241,43.945,145.020,104.492,-47.363,0.000
1587068790.245,31.250,-92.773,-106.445,-21.484,0.000
1587068790.249,-101.074,-502.441,-458.496,-20.020,0.000
1587068790.253,-121.582,-310.059,-320.312,-55.664,0.000
1587068790.257,-9.277,306.641,116.699,-61.035,0.000
1587068790.260,30.273,271.973,97.656,-33.203,0.000
1587068790.264,-53.711,-166.504,-163.086,-25.391,0.000
1587068790.268,-108.887,-286.621,-291.504,-39.062,0.000
1587068790.272,-39.551,-19.531,-82.520,-51.758,0.000
1587068790.276,35.645,8.789,-4.395,-35.645,0.000
1587068790.280,-52.246,-177.246,-161.621,-27.344,0.000
1587068790.284,-154.785,-209.473,-259.277,-57.617,0.000
1587068790.288,-90.332,-302.734,-363.770,-56.641,0.000
1587068790.292,25.391,-299.805,-305.176,-33.203,0.000
1587068790.296,2.441,-168.457,-202.637,-23.926,0.000
1587068790.300,-121.094,115.723,-23.438,-47.852,0.000
1587068790.303,-110.352,-118.652,-246.582,-52.734,0.000
1587068790.307,9.766,-86.426,-179.688,-32.227,0.000
1587068790.311,31.738,389.160,154.297,-8.301,0.000
1587068790.315,-74.219,299.316,59.082,-9.766,0.000
1587068790.319,-107.910,-324.707,-357.422,-37.598,0.000
1587068790.323,-3.906,-140.625,-202.148,-49.316,0.000
1587068790.327,38.574,485.840,205.078,-37.109,0.000
1587068790.331,-60.547,324.219,98.145,-28.320,0.000
1587068790.335,-116.699,-500.977,-401.367,-40.039,0.000
1587068790.339,-30.762,-533.203,-315.430,-47.363,0.000
1587068790.342,44.922,355.957,240.723,-38.574,0.000
1587068790.346,-24.414,210.449,-22.949,-20.020,0.000
1587068790.350,-126.465,-538.086,-418.945,-26.367,0.000
1587068790.354,-79.102,-305.176,-173.340,-42.480,0.000
1587068790.358,35.645,492.676,221.680,-46.387,0.000
1587068790.362,11.719,351.074,98.145,-27.832,0.000
1587068790.366,-109.863,-344.727,-325.195,-22.949,0.000
1587068790.370,-110.352,-313.477,-310.059,-52.734,0.000
1587068790.374,1.953,379.395,146.484,-66.895,0.000
1587068790.378,32.715,599.121,215.332,-41.992,0.000
1587068790.382,-73.730,-267.578,-272.461,-20.020,0.000
1587068790.385,-135.254,-615.723,-384.277,-44.922,0.000
1587068790.389,-40.039,119.629,40.527,-62.988,0.000
1587068790.393,28.809,467.285,187.500,-35.645,0.000
1587068790.397,-56.641,-129.395,-130.859,-20.508,0.000
1587068790.401,-146.484,-438.965,-351.562,-50.781,0.000
1587068790.405,-55.664,-136.230,-214.355,-67.383,0.000
1587068790.409,55.176,151.855,18.066,-38.574,0.000
1587068790.413,-14.648,202.148,49.316,-18.555,0.000
1587068790.417,-122.559,-98.633,-186.523,-27.344,0.000
1587068790.421,-70.312,-127.441,-241.699,-42.480,0.000
1587068790.425,49.316,224.121,47.363,-36.133,0.000
1587068790.428,26.855,57.129,-12.207,-21.973,0.000
1587068790.432,-109.375,-374.512,-322.754,-42.969,0.000
1587068790.436,-130.371,-158.203,-223.145,-59.570,0.000
1587068790.440,-12.207,-100.098,-163.574,-47.852,0.000
1587068790.444,30.273,-182.129,-156.738,-37.109,0.000
1587068790.448,-82.031,71.777,-4.395,-42.480,0.000
1587068790.452,-134.766,-52.246,-224.121,-50.781,0.000
1587068790.456,-14.648,-300.293,-345.703,-38.574,0.000
1587068790.460,59.082,62.500,-0.977,-18.066,0.000
1587068790.464,-41.992,188.477,-17.578,-20.020,0.000
1587068790.467,-133.789,-338.379,-415.527,-41.504,0.000
1587068790.471,-65.918,-380.859,-352.539,-53.711,0.000
1587068790.475,33.691,29.297,-31.250,-38.574,0.000
1587068790.479,-14.648,369.629,126.953,-24.414,0.000
1587068790.483,-117.188,-2.441,-171.875,-38.574,0.000
1587068790.487,-87.402,-270.996,-310.547,-50.781,0.000
1587068790.491,28.320,298.340,75.195,-30.762,0.000
1587068790.495,21.973,647.949,250.000,-10.742,0.000
1587068790.499,-91.797,-57.617,-199.707,-20.020,0.000
1587068790.503,-98.145,-649.902,-476.074,-29.785,0.000
1587068790.507,15.137,97.168,53.711,-34.180,0.000
1587068790.510,37.109,678.223,280.273,-38.574,0.000
1587068790.514,-80.078,46.875,-153.320,-37.598,0.000
1587068790.518,-120.605,-481.934,-473.145,-35.156,0.000
1587068790.522,-1.953,-130.371,-182.129,-26.367,0.000
1587068790.526,63.965,312.988,154.297,-31.738,0.000
1587068790.530,-17.578,-107.910,-156.738,-30.762,0.000
1587068790.534,-108.887,-683.594,-515.137,-41.016,0.000
1587068790.538,-58.594,-41.016,-76.172,-64.941,0.000
1587068790.542,42.480,634.766,253.418,-56.641,0.000
1587068790.546,12.695,335.449,52.246,-24.902,0.000
1587068790.550,-113.281,-337.402,-352.051,-35.156,0.000
1587068790.553,-104.980,-256.836,-285.156,-52.734,0.000
1587068790.557,20.508,311.523,60.059,-42.969,0.000
1587068790.561,31.250,435.059,176.758,-24.414,0.000
1587068790.565,-87.402,45.410,-88.379,-28.809,0.000
1587068790.569,-116.211,-444.336,-454.102,-48.828,0.000
1587068790.573,8.789,-16.113,-65.918,-37.598,0.000
1587068790.577,64.453,-18.066,-99.121,-23.438,0.000
1587068790.581,-69.336,-479.492,-443.359,-48.828,0.000
1587068790.585,-159.668,-141.113,-291.504,-65.430,0.000
1587068790.589,-50.293,50.293,-108.887,-56.152,0.000
1587068790.592,35.645,410.645,190.918,-43.945,0.000
1587068790.596,-42.969,447.266,164.062,-43.945,0.000
1587068790.600,-122.070,-20.020,-96.191,-46.875,0.000
1587068790.604,-55.176,-168.457,-238.281,-40.039,0.000
1587068790.608,44.922,158.203,3.418,-52.734,0.000
1587068790.612,5.371,347.168,101.562,-42.480,0.000
1587068790.616,-104.980,-306.641,-306.152,-32.227,0.000
1587068790.620,-79.102,-793.945,-557.617,-25.391,0.000
1587068790.624,32.227,-381.836,-228.516,-21.973,0.000
1587068790.628,33.691,478.027,255.371,-23.926,0.000
1587068790.632,-76.172,219.238,-57.617,-21.973,0.000
1587068790.635,-102.539,-442.383,-421.387,-29.785,0.000
1587068790.639,16.113,-111.328,-100.586,-19.043,0.000
1587068790.643,62.988,414.551,214.844,-10.742,0.000
1587068790.647,-50.781,143.066,-13.672,-13.672,0.000
1587068790.651,-130.859,-356.445,-358.887,-33.203,0.000
1587068790.655,-39.551,-139.160,-158.203,-48.828,0.000
1587068790.659,54.688,449.707,202.148,-28.320,0.000
1587068790.663,-15.625,233.398,-7.324,-33.203,0.000
1587068790.667,-112.305,-689.941,-542.480,-35.645,0.000
1587068790.671,-73.730,-446.777,-286.133,-35.645,0.000
1587068790.675,31.250,574.219,249.023,-44.434,0.000
1587068790.678,32.227,483.398,98.633,-31.250,0.000
1587068790.682,-89.355,-224.609,-309.570,-33.203,0.000
1587068790.686,-102.539,-281.738,-343.262,-47.363,0.000
1587068790.690,13.184,323.730,84.473,-43.457,0.000
1587068790.694,33.691,416.016,135.254,-22.949,0.000
1587068790.698,-70.312,-149.902,-245.117,-8.789,0.000
1587068790.702,-115.723,-269.531,-305.664,-13.184,0.000
1587068790.706,-15.625,174.805,43.457,-35.156,0.000
1587068790.710,64.941,104.004,0.977,-18.555,0.000
1587068790.714,-23.438,-343.750,-325.195,5.859,0.000
1587068790.717,-124.512,-235.840,-313.477,-33.203,0.000
1587068790.721,-46.875,74.707,-87.402,-50.293,0.000
1587068790.725,46.875,213.867,77.148,-30.273,0.000
1587068790.729,-20.020,172.363,39.062,-24.414,0.000
1587068790.733,-119.629,-126.953,-217.285,-26.855,0.000
1587068790.737,-72.266,-403.809,-408.691,-27.832,0.000
1587068790.741,35.645,68.359,24.902,-28.809,0.000
1587068790.745,14.648,429.688,211.426,-15.137,0.000
1587068790.749,-109.375,55.664,-115.234,-30.762,0.000
1587068790.753,-120.605,-323.242,-382.812,-53.223,0.000
1587068790.757,-5.859,-105.957,-206.055,-46.387,0.000
1587068790.760,26.855,166.016,42.480,-38.086,0.000
1587068790.764,-74.707,15.625,-102.539,-39.551,0.000
1587068790.768,-125.000,-303.223,-382.324,-39.551,0.000
1587068790.772,-31.738,-514.648,-326.172,-36.133,0.000
1587068790.776,36.133,166.504,90.820,-47.363,0.000
1587068790.780,-45.410,468.750,129.395,-45.898,0.000
1587068790.784,-132.812,-241.211,-306.152,-42.480,0.000
1587068790.788,-51.758,-236.328,-230.469,-41.992,0.000
1587068790.792,49.805,453.125,214.355,-43.457,0.000
1587068790.796,-17.090,520.020,183.594,-20.996,0.000
1587068790.800,-128.418,-294.434,-312.500,-15.137,0.000
1587068790.803,-92.285,-661.621,-502.930,-41.992,0.000
1587068790.807,25.391,125.000,19.531,-49.805,0.000
1587068790.811,7.812,551.270,224.121,-33.691,0.000
1587068790.815,-116.699,-303.223,-262.695,-28.809,0.000
1587068790.819,-129.395,-561.035,-420.410,-53.223,0.000
1587068790.823,-4.883,245.605,60.547,-50.781,0.000
1587068790.827,25.391,389.648,148.438,-40.039,0.000
1587068790.831,-79.102,-475.586,-392.090,-25.391,0.000
1587068790.835,-132.324,-809.570,-596.680,-37.598,0.000
1587068790.839,-51.758,76.172,-47.852,-65.918,0.000
1587068790.842,48.340,590.820,234.375,-45.898,0.000
1587068790.846,-27.832,250.000,-32.715,-24.902,0.000
1587068790.850,-134.766,-442.383,-411.133,-29.297,0.000
1587068790.854,-67.383,-242.188,-226.074,-40.527,0.000
1587068790.858,43.945,442.871,131.836,-35.645,0.000
1587068790.862,0.977,-16.602,-124.023,-20.020,0.000
1587068790.866,-120.117,-396.484,-356.445,-37.109,0.000
1587068790.870,-93.750,-144.531,-308.105,-57.129,0.000
1587068790.874,21.973,55.664,-107.910,-44.434,0.000
1587068790.878,18.555,371.094,176.270,-44.922,0.000
1587068790.882,-96.191,141.113,-49.316,-47.363,0.000
1587068790.885,-116.699,-166.504,-302.246,-42.480,0.000
1587068790.889,15.625,-36.621,-208.496,-25.879,0.000
1587068790.893,63.477,298.340,63.477,-20.996,0.000
1587068790.897,-60.059,-49.805,-146.973,-35.156,0.000
1587068790.901,-130.859,-458.008,-400.879,-51.758,0.000
1587068790.905,-25.391,-304.199,-345.703,-39.551,0.000
1587068790.909,54.688,99.121,-106.934,-22.949,0.000
1587068790.913,-33.203,422.852,128.906,-34.180,0.000
1587068790.917,-128.906,-43.457,-229.004,-57.129,0.000
1587068790.921,-68.359,-556.641,-488.770,-46.875,0.000
1587068790.925,49.316,-314.941,-229.492,-20.020,0.000
1587068790.928,20.508,338.379,129.395,-20.508,0.000
1587068790.932,-108.887,-85.938,-249.512,-29.297,0.000
1587068790.936,-102.539,-338.379,-386.230,-33.203,0.000
1587068790.940,24.414,236.816,35.645,-14.648,0.000
1587068790.944,39.551,430.176,153.320,-20.020,0.000
1587068790.948,-85.938,-101.074,-204.102,-45.410,0.000
1587068790.952,-127.441,-473.633,-416.016,-60.547,0.000
1587068790.956,-25.391,77.148,-14.648,-53.711,0.000
1587068790.960,31.250,673.340,277.344,-32.227,0.000
1587068790.964,-39.062,208.984,-88.867,-15.137,0.000
1587068790.967,-103.516,-752.441,-574.219,-14.648,0.000
1587068790.971,-37.598,-276.367,-158.203,-36.621,0.000
1587068790.975,40.039,755.859,321.289,-41.504,0.000
1587068790.979,-18.555,298.340,-28.809,-17.090,0.000
1587068790.983,-108.887,-500.000,-463.867,-12.207,0.000
1587068790.987,-73.242,-183.105,-204.102,-27.344,0.000
1587068790.991,22.461,350.586,149.902,-42.480,0.000
1587068790.995,20.020,90.820,-91.309,-13.184,0.000
1587068790.999,-98.145,-613.281,-490.723,-12.207,0.000
1587068791.003,-115.723,-256.348,-265.625,-59.570,0.000
1587068791.007,-6.348,381.836,54.688,-52.246,0.000
1587068791.010,15.625,475.586,191.406,-41.504,0.000
1587068791.014,-84.473,68.359,-69.336,-38.574,0.000
1587068791.018,-110.352,-413.574,-411.133,-29.297,0.000
1587068791.022,1.465,-61.035,-134.766,-39.062,0.000
1587068791.026,42.969,436.523,206.543,-29.297,0.000
1587068791.030,-57.129,301.270,96.680,-20.508,0.000
1587068791.034,-132.812,-116.211,-246.582,-37.109,0.000
1587068791.038,-61.035,-205.078,-334.961,-33.691,0.000
1587068791.042,48.340,-181.152,-231.934,-19.043,0.000
1587068791.046,-8.789,-200.195,-251.953,-16.113,0.000
1587068791.050,-126.953,-207.031,-309.570,-31.250,0.000
1587068791.053,-80.078,-225.586,-345.703,-42.480,0.000
1587068791.057,31.738,257.324,-12.207,-44.434,0.000
1587068791.061,8.301,515.625,147.461,-36.133,0.000
1587068791.065,-109.863,-20.020,-229.492,-32.715,0.000
1587068791.069,-104.004,-425.293,-447.266,-33.691,0.000
1587068791.073,9.277,-19.043,-149.414,-36.133,0.000
1587068791.077,29.297,553.223,222.168,-42.480,0.000
1587068791.081,-73.730,235.840,-39.062,-42.480,0.000
1587068791.085,-128.906,-730.957,-600.586,-45.410,0.000
1587068791.089,-40.039,-579.590,-393.066,-49.805,0.000
1587068791.092,36.133,529.297,221.191,-34.180,0.000
1587068791.096,-40.527,445.312,66.406,-26.367,0.000
1587068791.100,-129.883,-557.617,-481.934,-43.945,0.000
1587068791.104,-67.871,-535.645,-419.922,-48.828,0.000
1587068791.108,36.133,374.023,93.750,-43.945,0.000
1587068791.112,20.020,360.840,87.891,-20.020,0.000
1587068791.116,-96.191,-233.398,-298.828,-35.645,0.000
1587068791.120,-102.051,-226.074,-320.801,-58.594,0.000
1587068791.124,13.672,386.230,103.027,-38.086,0.000
1587068791.128,25.391,586.914,190.430,-30.273,0.000
1587068791.132,-101.562,-178.711,-271.973,-44.922,0.000
1587068791.135,-134.766,-495.117,-374.023,-50.781,0.000
1587068791.139,-8.301,214.355,25.391,-55.664,0.000
1587068791.143,51.270,490.723,137.207,-23.926,0.000
1587068791.147,-61.035,23.438,-140.137,-13.184,0.000
1587068791.151,-134.277,-240.723,-335.449,-38.086,0.000
1587068791.155,-40.527,141.602,-27.832,-46.875,0.000
1587068791.159,41.504,388.184,142.090,-38.086,0.000
1587068791.163,-15.137,-372.559,-320.312,-13.184,0.000
1587068791.167,-118.652,-597.656,-461.426,-29.297,0.000
1587068791.171,-70.312,43.945,-112.305,-43.945,0.000
1587068791.175,41.504,278.320,67.871,-29.297,0.000
1587068791.178,4.395,19.043,-152.832,-32.715,0.000
1587068791.182,-118.652,-228.027,-353.516,-56.152,0.000
1587068791.186,-101.562,-62.012,-234.863,-52.246,0.000
1587068791.190,36.133,-52.734,-196.777,-20.508,0.000
1587068791.194,44.922,-3.906,-98.145,-2.930,0.000
1587068791.198,-88.867,98.145,-53.223,-6.348,0.000
1587068791.202,-117.676,-205.566,-350.586,-27.832,0.000
1587068791.206,13.184,-381.836,-402.832,-30.273,0.000
1587068791.210,60.059,-66.406,-136.719,-22.461,0.000
1587068791.214,-56.641,375.977,107.910,-27.832,0.000
1587068791.217,-129.883,-113.770,-295.410,-35.156,0.000
1587068791.221,-33.203,-257.812,-380.371,-43.457,0.000
1587068791.225,62.012,208.984,-15.625,-34.180,0.000
1587068791.229,-7.324,250.488,42.969,-23.438,0.000
1587068791.233,-111.816,-127.441,-280.273,-31.250,0.000
1587068791.237,-58.594,-618.652,-487.305,-20.996,0.000
1587068791.241,44.434,20.508,3.906,-20.020,0.000
1587068791.245,4.395,738.281,225.098,-31.250,0.000
1587068791.249,-104.980,-115.723,-308.594,-26.855,0.000
1587068791.253,-95.703,-401.367,-382.812,-35.645,0.000
1587068791.257,20.020,239.258,42.969,-41.016,0.000
1587068791.260,42.969,541.504,181.641,-25.879,0.000
1587068791.264,-80.566,-31.738,-173.828,-24.902,0.000
1587068791.268,-129.395,-454.102,-458.984,-40.039,0.000
1587068791.272,-16.113,-107.422,-218.750,-40.039,0.000
1587068791.276,55.176,434.082,175.781,-23.438,0.000
1587068791.280,-41.504,1.465,-141.602,-12.207,0.000
1587068791.284,-130.859,-745.605,-591.797,-22.461,0.000
1587068791.288,-61.035,-93.262,-136.719,-35.645,0.000
1587068791.292,54.688,618.652,232.422,-36.621,0.000
1587068791.296,8.301,189.453,-40.039,-23.438,0.000
1587068791.300,-117.676,-580.566,-458.496,-14.160,0.000
1587068791.303,-84.473,-329.102,-346.191,-26.855,0.000
1587068791.307,27.832,311.523,41.016,-41.992,0.000
1587068791.311,6.348,247.070,9.766,-26.855,0.000
1587068791.315,-110.840,-203.125,-326.172,-32.715,0.000
1587068791.319,-110.352,-435.547,-466.797,-41.504,0.000
1587068791.323,2.930,19.531,-113.281,-33.691,0.000
1587068791.327,38.086,-67.871,-172.363,-10.254,0.000
1587068791.331,-79.102,-482.422,-430.176,-8.789,0.000
1587068791.335,-131.348,-87.402,-277.832,-35.156,0.000
1587068791.339,-9.277,70.801,-224.121,-26.855,0.000
1587068791.342,60.059,135.742,-61.035,-16.113,0.000
1587068791.346,-36.133,202.148,-13.672,-17.090,0.000
1587068791.350,-128.418,22.461,-206.055,-46.387,0.000
1587068791.354,-61.523,-214.355,-387.695,-48.828,0.000
1587068791.358,64.453,83.008,-117.676,-17.090,0.000
1587068791.362,24.902,463.379,118.652,-7.324,0.000
1587068791.366,-114.258,-104.492,-266.602,-27.832,0.000
1587068791.370,-88.379,-636.230,-546.875,-28.320,0.000
1587068791.374,30.273,-176.270,-261.230,-30.273,0.000
1587068791.378,31.738,523.926,172.852,-24.902,0.000
1587068791.382,-73.242,255.371,-62.500,-18.555,0.000
1587068791.385,-104.004,-538.574,-518.066,-35.645,0.000
1587068791.389,16.602,-289.551,-221.680,-32.715,0.000
1587068791.393,55.664,502.441,187.012,-28.809,0.000
1587068791.397,-69.824,20.508,-218.262,-37.109,0.000
1587068791.401,-122.559,-359.375,-405.762,-52.734,0.000
1587068791.405,-14.648,151.367,4.395,-51.270,0.000
1587068791.409,67.871,657.227,242.188,-38.574,0.000
1587068791.413,-11.230,300.293,-27.832,-17.090,0.000
1587068791.417,-119.141,-681.152,-549.316,-19.043,0.000
1587068791.421,-54.199,-468.262,-307.617,-20.508,0.000
1587068791.425,57.129,671.387,280.273,-21.484,0.000
1587068791.428,-3.418,562.012,98.145,-33.203,0.000
1587068791.432,-125.488,-202.637,-340.820,-44.922,0.000
1587068791.436,-114.258,-150.391,-251.465,-51.758,0.000
1587068791.440,0.488,478.516,173.828,-38.086,0.000
1587068791.444,21.973,545.898,157.227,-20.020,0.000
1587068791.448,-94.727,3.418,-166.992,-20.508,0.000
1587068791.452,-124.512,-242.188,-321.289,-45.898,0.000
1587068791.456,-10.742,-46.875,-186.035,-50.781,0.000
1587068791.460,50.781,20.020,-103.516,-21.973,0.000
1587068791.464,-51.270,-336.914,-330.078,-14.648,0.000
1587068791.467,-141.113,-283.203,-334.473,-56.641,0.000
1587068791.471,-52.734,124.023,-51.270,-65.918,0.000
1587068791.475,35.645,193.848,18.555,-53.223,0.000
1587068791.479,-26.855,-0.977,-105.469,-39.551,0.000
1587068791.483,-131.348,-102.539,-201.660,-41.504,0.000
1587068791.487,-96.680,-292.969,-357.422,-56.152,0.000
1587068791.491,24.902,12.695,-97.656,-56.152,0.000
1587068791.495,9.277,401.367,124.023,-31.738,0.000
1587068791.499,-96.191,-23.438,-162.109,-25.879,0.000
1587068791.503,-75.684,-278.809,-347.656,-30.273,0.000
1587068791.507,33.691,-48.828,-216.797,-17.090,0.000
1587068791.510,30.273,254.395,38.086,-10.742,0.000
1587068791.514,-87.891,19.043,-116.699,-21.484,0.000
1587068791.518,-115.723,-434.570,-448.730,-36.133,0.000
1587068791.522,-13.672,-381.836,-317.871,-40.527,0.000
1587068791.526,38.086,209.473,86.914,-41.016,0.000
1587068791.530,-48.828,340.820,44.434,-33.691,0.000
1587068791.534,-138.184,-342.285,-417.480,-33.203,0.000
1587068791.538,-56.152,-292.480,-289.551,-46.875,0.000
1587068791.542,42.969,425.293,173.340,-55.664,0.000
1587068791.546,-18.555,453.125,111.328,-30.273,0.000
1587068791.550,-102.539,-346.680,-372.070,-17.578,0.000
1587068791.553,-65.918,-716.309,-550.293,-30.762,0.000
1587068791.557,29.297,-35.156,-94.727,-37.598,0.000
1587068791.561,9.766,507.324,188.965,-30.273,0.000
1587068791.565,-103.516,-297.363,-333.008,-28.320,0.000
1587068791.569,-99.609,-758.789,-551.270,-31.738,0.000
1587068791.573,22.461,71.289,-41.992,-29.297,0.000
1587068791.577,37.598,564.453,160.645,-24.414,0.000
1587068791.581,-77.148,87.891,-119.629,-28.809,0.000
1587068791.585,-124.023,-424.316,-417.969,-52.246,0.000
1587068791.589,-24.902,118.164,-68.359,-65.918,0.000
1587068791.592,47.363,608.398,216.309,-45.410,0.000
1587068791.596,-44.922,194.336,-105.469,-34.180,0.000
1587068791.600,-133.301,-533.691,-492.676,-44.922,0.000
1587068791.604,-53.711,-282.227,-252.930,-51.758,0.000
1587068791.608,49.805,479.492,159.180,-47.852,0.000
1587068791.612,7.324,-15.137,-132.812,-13.672,0.000
1587068791.616,-117.188,-531.250,-463.379,-27.832,0.000
1587068791.620,-99.121,-42.480,-203.613,-55.664,0.000
1587068791.624,30.273,331.543,84.473,-38.086,0.000
1587068791.628,27.832,368.652,133.301,-26.367,0.000
1587068791.632,-93.262,-77.637,-159.180,-34.180,0.000
1587068791.635,-115.723,-273.926,-349.609,-41.016,0.000
1587068791.639,0.000,125.977,-7.324,-43.945,0.000
1587068791.643,38.574,368.164,144.043,-33.203,0.000
1587068791.647,-70.801,-52.734,-183.105,-16.113,0.000
1587068791.651,-135.254,-364.258,-329.590,-35.645,0.000
1587068791.655,-18.066,-234.863,-312.500,-22.949,0.000
1587068791.659,97.168,113.770,-101.562,20.996,0.000
1587068791.663,0.000,436.523,134.766,14.160,0.000
1587068791.667,-145.508,-103.027,-250.000,-41.504,0.000
1587068791.671,-93.262,-510.742,-430.664,-54.688,0.000
1587068791.675,25.879,-94.238,-101.562,-31.738,0.000
1587068791.678,-11.719,393.555,164.551,-31.250,0.000
1587068791.682,-137.695,-18.555,-178.223,-37.109,0.000
1587068791.686,-125.000,-358.398,-390.137,-46.387,0.000
1587068791.690,-4.395,-6.348,-43.457,-48.340,0.000
1587068791.694,-3.906,235.352,122.070,-23.438,0.000
1587068791.698,-123.047,-52.734,-150.391,-20.020,0.000
1587068791.702,-145.508,-798.828,-583.008,-46.387,0.000
1587068791.706,-34.668,-469.727,-290.527,-50.293,0.000
1587068791.710,14.160,678.711,294.434,-41.016,0.000
1587068791.714,-86.914,276.367,-20.996,-38.086,0.000
1587068791.717,-158.691,-505.859,-454.102,-53.223,0.000
1587068791.721,-62.012,-139.648,-180.176,-54.688,0.000
1587068791.725,46.387,487.305,218.262,-28.809,0.000
1587068791.729,-30.762,195.801,-3.418,-14.160,0.000
1587068791.733,-143.555,-416.992,-398.926,-32.227,0.000
1587068791.737,-79.590,-226.074,-283.691,-38.574,0.000
1587068791.741,38.574,211.914,30.762,-24.902,0.000
1587068791.745,27.344,17.090,-105.469,-2.441,0.000
1587068791.749,-104.004,-618.164,-491.699,-15.137,0.000
1587068791.753,-119.629,-222.656,-215.820,-60.547,0.000
1587068791.757,17.090,472.168,118.164,-52.246,0.000
1587068791.760,23.438,444.336,143.066,-35.156,0.000
1587068791.764,-99.121,-28.320,-138.184,-35.156,0.000
1587068791.768,-125.977,-448.242,-434.082,-33.691,0.000
1587068791.772,-18.555,-157.715,-178.223,-32.715,0.000
1587068791.776,47.363,343.750,180.664,-26.367,0.000
1587068791.780,-44.922,154.297,29.297,-10.254,0.000
1587068791.784,-125.977,-288.574,-325.195,-21.973,0.000
1587068791.788,-45.410,-248.047,-292.480,-29.297,0.000
1587068791.792,64.453,-229.980,-212.402,-13.672,0.000
1587068791.796,2.441,-210.449,-163.574,-7.812,0.000
1587068791.800,-120.117,-34.668,-148.926,-30.273,0.000
1587068791.803,-70.312,-184.082,-335.938,-35.645,0.000
1587068791.807,34.180,158.203,-25.879,-29.785,0.000
1587068791.811,-0.977,488.770,191.406,-25.879,0.000
1587068791.815,-128.418,30.762,-140.137,-40.527,0.000
1587068791.819,-136.230,-409.668,-418.945,-58.594,0.000
1587068791.823,-10.254,-104.004,-169.434,-31.738,0.000
1587068791.827,16.602,485.840,231.445,-19.531,0.000
1587068791.831,-93.262,159.180,-46.875,-28.320,0.000
1587068791.835,-136.230,-741.211,-593.750,-40.527,0.000
1587068791.839,-21.973,-433.105,-289.551,-32.227,0.000
1587068791.842,53.223,495.117,224.609,-13.672,0.000
1587068791.846,-35.645,468.750,145.508,-25.879,0.000
1587068791.850,-128.906,-444.336,-334.473,-47.852,0.000
1587068791.854,-61.035,-532.715,-300.781,-41.992,0.000
1587068791.858,33.691,436.523,218.262,-41.016,0.000
1587068791.862,-18.555,222.168,-3.906,-38.574,0.000
1587068791.866,-125.000,-473.633,-359.863,-29.297,0.000
1587068791.870,-98.633,-295.898,-215.820,-43.457,0.000
1587068791.874,18.555,474.609,193.848,-45.898,0.000
1587068791.878,14.648,603.027,176.270,-30.762,0.000
1587068791.882,-101.074,-295.410,-323.242,-34.668,0.000
1587068791.885,-119.629,-665.527,-438.965,-32.715,0.000
1587068791.889,4.395,113.281,33.203,-27.344,0.000
1587068791.893,61.035,488.281,143.066,-29.785,0.000
1587068791.897,-56.641,-400.879,-317.871,-24.902,0.000
1587068791.901,-146.973,-604.980,-395.508,-52.246,0.000
1587068791.905,-37.598,165.039,-15.625,-47.852,0.000
1587068791.909,64.453,409.668,137.207,-14.648,0.000
1587068791.913,-32.227,86.426,-80.566,-14.648,0.000
1587068791.917,-124.023,-261.719,-312.500,-22.949,0.000
1587068791.921,-56.152,-77.637,-154.785,-48.828,0.000
1587068791.925,39.062,187.012,80.078,-56.152,0.000
1587068791.928,-6.348,-35.156,-100.586,-43.945,0.000
1587068791.932,-117.188,-333.984,-337.891,-44.922,0.000
1587068791.936,-101.562,-103.027,-196.289,-51.270,0.000
1587068791.940,17.090,-0.977,-122.070,-43.457,0.000
1587068791.944,17.090,-136.719,-114.746,-13.672,0.000
1587068791.948,-103.516,40.527,-54.688,-15.625,0.000
1587068791.952,-111.328,-156.738,-323.242,-32.227,0.000
1587068791.956,-1.465,-117.676,-246.582,-46.875,0.000
1587068791.960,39.551,307.129,41.504,-39.062,0.000
1587068791.964,-72.266,267.090,56.152,-34.180,0.000
1587068791.967,-135.254,-291.992,-339.844,-56.152,0.000
1587068791.971,-37.109,-262.695,-311.035,-51.758,0.000
1587068791.975,38.086,205.566,79.102,-42.969,0.000
1587068791.979,-35.645,90.820,-53.223,-40.039,0.000
1587068791.983,-129.883,-457.031,-463.379,-50.293,0.000
1587068791.987,-75.684,-770.996,-512.695,-42.969,0.000
1587068791.991,29.297,-9.766,-16.113,-40.527,0.000
1587068791.995,-5.859,689.941,229.980,-37.109,0.000
1587068791.999,-116.699,-19.043,-214.844,-24.414,0.000
1587068792.003,-93.262,-405.762,-407.227,-33.203,0.000
1587068792.007,32.227,211.426,3.418,-31.738,0.000
1587068792.010,44.434,662.598,251.953,-12.207,0.000
1587068792.014,-88.867,16.113,-169.922,-29.297,0.000
1587068792.018,-131.348,-548.340,-520.020,-53.711,0.000
1587068792.022,-11.230,-142.578,-233.398,-41.992,0.000
1587068792.026,41.504,421.387,152.344,-37.598,0.000
1587068792.030,-41.992,-15.625,-173.828,-18.066,0.000
1587068792.034,-104.980,-883.301,-677.246,-8.301,0.000
1587068792.038,-39.062,-243.652,-222.656,-32.715,0.000
1587068792.042,43.945,435.059,122.559,-46.387,0.000
1587068792.046,-24.902,226.074,-42.480,-48.340,0.000
1587068792.050,-140.137,-358.887,-412.598,-61.035,0.000
1587068792.053,-93.262,-145.996,-210.449,-54.199,0.000
1587068792.057,24.902,453.125,150.391,-43.457,0.000
1587068792.061,2.441,351.074,90.332,-41.504,0.000
1587068792.065,-112.793,-109.375,-247.070,-35.156,0.000
1587068792.069,-116.211,-326.172,-420.410,-46.875,0.000
1587068792.073,13.672,146.484,24.902,-47.852,0.000
1587068792.077,54.199,20.020,-72.266,-8.789,0.000
1587068792.081,-62.500,-298.340,-381.348,-11.230,0.000
1587068792.085,-118.164,-128.418,-309.082,-39.062,0.000
1587068792.089,-20.508,-78.613,-267.578,-42.969,0.000
1587068792.092,41.504,277.344,0.977,-29.297,0.000
1587068792.096,-48.828,224.609,-28.809,-26.855,0.000
1587068792.100,-149.902,-219.727,-345.703,-57.129,0.000
1587068792.104,-76.172,-108.887,-239.746,-67.871,0.000
1587068792.108,33.203,389.160,104.980,-47.852,0.000
1587068792.112,-22.461,448.730,105.469,-41.016,0.000
1587068792.116,-116.699,-249.512,-320.312,-51.758,0.000
1587068792.120,-77.637,-636.719,-526.367,-55.176,0.000
1587068792.124,21.484,-176.270,-187.500,-59.082,0.000
1587068792.128,13.184,558.105,230.957,-31.738,0.000
1587068792.132,-106.934,215.332,-94.727,-21.484,0.000
1587068792.135,-118.652,-554.199,-494.141,-38.574,0.000
1587068792.139,6.836,-181.152,-184.570,-29.785,0.000
1587068792.143,36.133,420.410,138.672,-23.438,0.000
1587068792.147,-79.102,93.750,-78.613,-37.109,0.000
1587068792.151,-130.371,-327.637,-356.934,-55.664,0.000
1587068792.155,-25.391,-96.191,-168.457,-46.387,0.000
1587068792.159,42.969,434.082,175.293,-33.203,0.000
1587068792.163,-37.598,99.121,-107.910,-14.160,0.000
1587068792.167,-120.605,-483.887,-457.031,-14.648,0.000
1587068792.171,-44.922,-165.039,-181.641,-20.996,0.000
1587068792.175,71.777,484.863,181.152,-8.301,0.000
1587068792.178,19.531,457.520,97.656,-6.836,0.000
1587068792.182,-114.258,-243.164,-278.320,-19.043,0.000
1587068792.186,-104.980,-250.488,-279.297,-33.203,0.000
1587068792.190,-5.371,401.367,107.422,-58.105,0.000
1587068792.194,0.000,371.582,65.918,-42.969,0.000
1587068792.198,-102.051,-566.406,-389.648,-18.555,0.000
1587068792.202,-130.859,-513.184,-349.121,-31.250,0.000
1587068792.206,-15.137,312.012,60.547,-44.434,0.000
1587068792.210,43.457,233.398,1.953,-24.902,0.000
1587068792.214,-59.082,-410.645,-388.184,-7.324,0.000
1587068792.217,-135.742,-383.301,-376.465,-49.805,0.000
1587068792.221,-44.922,121.094,-88.867,-62.988,0.000
1587068792.225,38.086,343.750,62.500,-42.480,0.000
1587068792.229,-24.902,206.055,-24.902,-24.902,0.000
1587068792.233,-112.793,-109.375,-268.555,-18.066,0.000
1587068792.237,-64.941,-246.094,-368.164,-32.227,0.000
1587068792.241,35.156,189.453,54.688,-41.992,0.000
1587068792.245,1.953,411.133,166.992,-35.645,0.000
1587068792.249,-113.770,-0.488,-173.828,-30.762,0.000
1587068792.253,-113.281,-259.766,-344.727,-41.992,0.000
1587068792.257,19.043,-66.895,-218.750,-48.340,0.000
1587068792.260,34.668,240.723,54.688,-35.156,0.000
1587068792.264,-108.398,114.746,-58.594,-37.109,0.000
1587068792.268,-139.160,-290.527,-393.066,-55.664,0.000
1587068792.272,-10.254,-471.680,-362.793,-44.434,0.000
1587068792.276,37.109,43.945,4.883,-35.156,0.000
1587068792.280,-63.477,403.320,152.344,-43.945,0.000
1587068792.284,-128.906,-137.695,-259.277,-48.828,0.000
1587068792.288,-52.734,-138.672,-237.305,-55.664,0.000
1587068792.292,31.250,484.863,186.523,-43.945,0.000
1587068792.296,-26.367,491.699,146.484,-22.461,0.000
1587068792.300,-123.535,-286.621,-318.848,-27.832,0.000
1587068792.303,-75.195,-538.574,-466.309,-41.992,0.000
1587068792.307,36.133,46.387,-68.848,-38.086,0.000
1587068792.311,18.066,362.305,99.121,-22.949,0.000
1587068792.315,-92.285,-344.727,-350.098,-17.578,0.000
1587068792.319,-97.656,-661.621,-505.371,-29.785,0.000
1587068792.323,10.742,173.340,40.527,-51.270,0.000
1587068792.327,42.480,471.191,116.211,-29.297,0.000
1587068792.331,-57.129,-363.770,-367.676,-10.742,0.000
1587068792.335,-131.348,-763.184,-490.723,-45.410,0.000
1587068792.339,-40.527,69.336,-53.711,-66.406,0.000
1587068792.342,34.668,725.586,269.043,-51.270,0.000
1587068792.346,-56.152,-39.551,-152.832,-21.484,0.000
1587068792.350,-125.488,-866.211,-609.375,-22.949,0.000
1587068792.354,-48.828,-278.809,-312.012,-52.734,0.000
1587068792.358,44.434,465.332,96.191,-51.270,0.000
1587068792.362,-12.207,195.801,-71.289,-38.574,0.000
1587068792.366,-125.000,-385.254,-408.691,-39.551,0.000
1587068792.370,-78.125,-190.430,-311.523,-39.062,0.000
1587068792.374,40.039,292.969,61.523,-43.457,0.000
1587068792.378,28.809,190.430,10.742,-27.344,0.000
1587068792.382,-104.004,-61.035,-207.520,-38.086,0.000
1587068792.385,-112.793,-84.473,-259.766,-58.105,0.000
1587068792.389,9.277,81.055,-75.195,-51.270,0.000
1587068792.393,37.598,362.305,150.391,-41.016,0.000
1587068792.397,-61.523,-38.086,-158.691,-28.809,0.000
1587068792.401,-125.977,-453.125,-415.039,-58.594,0.000
1587068792.405,-27.832,-286.133,-327.637,-48.340,0.000
1587068792.409,51.758,-103.027,-163.086,-19.043,0.000
1587068792.413,-58.105,311.035,113.770,-51.758,0.000
1587068792.417,-147.949,15.137,-187.012,-61.523,0.000
1587068792.421,-55.664,-196.777,-285.645,-42.969,0.000
1587068792.425,63.965,142.090,1.465,-21.484,0.000
1587068792.428,1.953,293.945,85.938,-27.832,0.000
1587068792.432,-125.488,-118.652,-260.254,-47.363,0.000
1587068792.436,-90.820,-354.492,-399.902,-56.152,0.000
1587068792.440,23.438,159.668,30.273,-42.969,0.000
1587068792.444,30.762,206.055,-17.578,-11.230,0.000
1587068792.448,-83.984,-319.336,-398.926,-20.996,0.000
1587068792.452,-110.352,-793.945,-551.270,-38.086,0.000
1587068792.456,-1.465,-286.133,-200.195,-39.551,0.000
1587068792.460,31.250,696.289,254.395,-32.715,0.000
1587068792.464,-80.566,215.332,-88.379,-33.691,0.000
1587068792.467,-116.699,-471.680,-457.031,-32.227,0.000
1587068792.471,-3.906,12.695,-125.977,-20.020,0.000
1587068792.475,59.570,677.246,264.648,-31.738,0.000
1587068792.479,-31.738,293.945,17.090,-43.945,0.000
1587068792.483,-138.184,-398.926,-420.410,-64.941,0.000
1587068792.487,-77.148,-160.156,-211.426,-62.500,0.000
1587068792.491,46.875,229.980,131.836,-34.668,0.000
1587068792.495,6.836,-21.973,-114.746,-20.020,0.000
1587068792.499,-122.559,-357.422,-419.922,-23.926,0.000
1587068792.503,-103.516,-125.488,-285.156,-37.109,0.000
1587068792.507,19.043,291.504,51.758,-34.180,0.000
1587068792.510,34.180,69.824,-80.078,-13.672,0.000
1587068792.514,-97.656,-437.988,-458.496,-34.668,0.000
1587068792.518,-129.883,-313.965,-335.449,-52.734,0.000
1587068792.522,-4.883,16.113,-92.285,-32.227,0.000
1587068792.526,38.574,253.418,37.109,-16.113,0.000
1587068792.530,-64.941,166.992,-15.137,-21.484,0.000
1587068792.534,-131.348,-117.188,-239.746,-31.250,0.000
1587068792.538,-46.387,-78.613,-239.746,-28.809,0.000
1587068792.542,49.316,-100.586,-166.504,-21.484,0.000
1587068792.546,-16.602,-85.938,-129.395,-15.137,0.000
1587068792.550,-135.254,18.555,-152.832,-40.527,0.000
1587068792.553,-84.961,-115.234,-227.051,-47.852,0.000
1587068792.557,28.320,266.602,78.125,-38.086,0.000
1587068792.561,-8.301,472.168,141.602,-32.715,0.000
1587068792.565,-106.934,-136.230,-209.473,-36.621,0.000
1587068792.569,-89.355,-506.836,-450.195,-40.527,0.000
1587068792.573,17.090,64.941,-88.867,-43.945,0.000
1587068792.577,50.293,499.512,190.918,-22.949,0.000
1587068792.581,-59.082,103.027,-100.586,-20.020,0.000
1587068792.585,-128.906,-594.727,-534.180,-41.016,0.000
1587068792.589,-21.973,-491.699,-369.629,-35.156,0.000
1587068792.592,40.039,437.988,196.289,-36.133,0.000
1587068792.596,-57.129,361.328,-1.465,-33.691,0.000
1587068792.600,-132.812,-545.410,-476.562,-39.062,0.000
1587068792.604,-52.734,-336.426,-220.703,-41.016,0.000
1587068792.608,41.504,507.324,201.172,-38.086,0.000
1587068792.612,-12.695,195.801,-73.242,-28.809,0.000
1587068792.616,-121.094,-487.793,-448.730,-31.738,0.000
1587068792.620,-90.332,-255.371,-279.297,-45.410,0.000
1587068792.624,36.133,276.367,33.691,-32.227,0.000
1587068792.628,26.855,448.730,140.625,-13.184,0.000
1587068792.632,-98.145,-202.637,-267.578,-22.949,0.000
1587068792.635,-103.027,-541.016,-453.613,-35.645,0.000
1587068792.639,11.230,287.598,75.684,-30.273,0.000
1587068792.643,24.902,512.207,98.145,-25.391,0.000
1587068792.647,-94.727,-313.477,-337.891,-18.555,0.000
1587068792.651,-126.465,-466.309,-374.023,-26.855,0.000
1587068792.655,-29.297,235.352,-39.551,-40.039,0.000
1587068792.659,28.809,434.570,104.980,-37.598,0.000
1587068792.663,-57.617,123.047,-70.312,-31.250,0.000
1587068792.667,-151.367,-190.430,-259.766,-46.875,0.000
1587068792.671,-73.242,-143.066,-296.387,-48.828,0.000
1587068792.675,46.875,149.414,-37.598,-27.344,0.000
1587068792.678,1.953,-70.801,-148.926,-14.160,0.000
1587068792.682,-114.258,-519.043,-467.773,-26.367,0.000
1587068792.686,-81.055,-319.336,-331.055,-33.691,0.000
1587068792.690,38.086,23.926,-149.414,-26.855,0.000
1587068792.694,24.414,-103.516,-206.543,-15.137,0.000
1587068792.698,-98.633,-1.465,-163.086,-31.738,0.000
1587068792.702,-125.488,-38.574,-310.547,-61.523,0.000
1587068792.706,-11.719,-94.238,-254.883,-45.410,0.000
1587068792.710,50.293,332.031,100.586,-34.668,0.000
1587068792.714,-61.035,306.641,8.301,-24.414,0.000
1587068792.717,-125.977,-318.848,-405.273,-17.578,0.000
1587068792.721,-16.113,-240.723,-333.984,-17.578,0.000
1587068792.725,60.059,167.969,-20.508,-15.625,0.000
1587068792.729,-46.875,125.000,-64.453,-34.668,0.000
1587068792.733,-146.973,-288.086,-391.113,-48.340,0.000
1587068792.737,-67.383,-396.973,-369.141,-43.457,0.000
1587068792.741,40.527,168.945,16.602,-33.691,0.000
1587068792.745,-2.441,465.820,115.723,-27.832,0.000
1587068792.749,-113.281,-105.957,-309.570,-30.273,0.000
1587068792.753,-90.820,-713.867,-488.770,-39.551,0.000
1587068792.757,20.020,32.227,42.969,-44.434,0.000
1587068792.760,22.949,734.863,252.441,-40.039,0.000
1587068792.764,-94.238,-28.809,-219.727,-42.480,0.000
1587068792.768,-128.418,-524.902,-497.070,-72.266,0.000
1587068792.772,-33.203,-214.355,-321.289,-88.867,0.000
1587068792.776,0.000,340.332,70.801,-84.961,0.000
1587068792.780,-109.863,-1.953,-167.480,-63.965,0.000
1587068792.784,-188.477,-682.617,-601.562,-84.473,0.000
1587068792.788,-115.723,41.992,-76.172,-127.441,0.000
1587068792.792,-42.480,723.633,257.812,-135.742,0.000
1587068792.796,-127.930,-23.438,-197.754,-131.836,0.000
1587068792.800,-244.141,-907.227,-659.668,-134.766,0.000
1587068792.803,-206.543,-357.910,-356.445,-159.668,0.000
1587068792.807,-91.309,434.570,82.520,-160.156,0.000
1587068792.811,-119.629,256.348,11.230,-143.066,0.000
1587068792.815,-242.188,-248.047,-319.824,-157.715,0.000
1587068792.819,-232.910,-215.820,-346.191,-177.734,0.000
1587068792.823,-117.676,85.938,-79.102,-177.734,0.000
1587068792.827,-99.121,295.898,24.902,-159.180,0.000
1587068792.831,-216.309,81.543,-183.594,-147.949,0.000
1587068792.835,-247.070,-109.863,-311.523,-165.527,0.000
1587068792.839,-125.000,125.488,-91.797,-156.250,0.000
1587068792.842,-48.340,83.008,-49.805,-126.465,0.000
1587068792.846,-151.855,-47.363,-200.684,-130.859,0.000
1587068792.850,-230.469,-103.027,-309.082,-135.254,0.000
1587068792.854,-101.562,-193.848,-370.117,-109.375,0.000
1587068792.858,18.555,86.426,-106.445,-89.355,0.000
1587068792.862,-52.734,304.199,15.625,-82.520,0.000
1587068792.866,-150.879,-271.484,-394.043,-63.477,0.000
1587068792.870,-86.426,-552.734,-522.949,-35.645,0.000
1587068792.874,36.133,-101.074,-201.660,-18.555,0.000
1587068792.878,14.160,478.516,142.578,-15.625,0.000
1587068792.882,-89.355,159.180,-186.523,-14.160,0.000
1587068792.885,-71.777,-428.711,-443.359,-15.625,0.000
1587068792.889,45.898,38.574,-56.641,-11.230,0.000
1587068792.893,55.176,466.309,153.809,-7.812,0.000
1587068792.897,-66.406,-104.980,-254.395,-9.277,0.000
1587068792.901,-95.215,-492.676,-497.559,-14.648,0.000
1587068792.905,19.531,53.223,-92.773,0.488,0.000
1587068792.909,87.891,588.379,166.992,19.531,0.000
1587068792.913,0.488,90.820,-198.242,34.180,0.000
1587068792.917,-86.914,-705.566,-571.777,30.762,0.000
1587068792.921,-5.859,-324.707,-257.812,22.461,0.000
1587068792.925,104.980,519.531,132.812,28.809,0.000
1587068792.928,52.246,317.871,-114.746,21.484,0.000
1587068792.932,-67.871,-642.090,-566.406,-1.465,0.000
1587068792.936,-48.828,-471.680,-354.004,-22.949,0.000
1587068792.940,75.684,555.664,109.375,-28.809,0.000
1587068792.944,77.637,483.887,11.230,-3.906,0.000
1587068792.948,-42.480,-176.758,-386.719,-2.930,0.000
1587068792.952,-57.129,-275.879,-416.992,-11.230,0.000
1587068792.956,63.477,263.672,-15.137,9.277,0.000
1587068792.960,103.027,285.156,-9.277,21.484,0.000
1587068792.964,-20.020,-410.645,-397.949,12.207,0.000
1587068792.967,-89.355,-310.059,-334.961,-7.812,0.000
1587068792.971,27.832,123.047,-220.215,-8.301,0.000
1587068792.975,89.844,229.980,-56.152,-6.348,0.000
1587068792.979,-25.391,181.641,-28.320,-27.344,0.000
1587068792.983,-135.254,-93.750,-301.270,-59.570,0.000
1587068792.987,-69.824,-249.023,-398.438,-60.059,0.000
1587068792.991,14.648,139.648,-127.441,-76.660,0.000
1587068792.995,-60.547,401.855,33.203,-80.078,0.000
1587068792.999,-200.684,19.531,-227.051,-105.469,0.000
1587068793.003,-215.332,-172.363,-364.258,-174.805,0.000
1587068793.007,-100.586,-5.859,-277.344,-177.246,0.000
1587068793.010,-108.398,252.441,-3.418,-176.270,0.000
1587068793.014,-249.023,185.059,-48.340,-191.895,0.000
1587068793.018,-268.066,-143.555,-360.840,-200.684,0.000
1587068793.022,-143.066,-392.578,-380.859,-210.938,0.000
1587068793.026,-111.816,142.090,16.113,-211.914,0.000
1587068793.030,-224.121,397.949,-8.789,-204.590,0.000
1587068793.034,-263.672,-379.883,-517.578,-191.406,0.000
1587068793.038,-153.320,-232.910,-247.559,-186.523,0.000
1587068793.042,-58.105,506.836,169.922,-150.879,0.000
1587068793.046,-123.535,535.156,103.027,-136.719,0.000
1587068793.050,-221.191,-204.102,-351.074,-146.484,0.000
1587068793.053,-147.949,-453.125,-456.055,-126.465,0.000
1587068793.057,-26.367,306.641,62.988,-118.652,0.000
1587068793.061,-46.387,669.922,220.215,-97.168,0.000
1587068793.065,-130.859,-241.699,-347.656,-55.664,0.000
1587068793.069,-97.656,-733.398,-581.055,-49.805,0.000
1587068793.073,10.254,332.031,104.004,-64.941,0.000
1587068793.077,37.598,757.324,250.977,-28.320,0.000
1587068793.081,-54.199,-203.125,-263.672,-0.488,0.000
1587068793.085,-82.031,-509.766,-373.535,-13.184,0.000
1587068793.089,37.598,234.863,54.688,-9.766,0.000
1587068793.092,94.727,451.660,177.246,23.438,0.000
1587068793.096,8.789,128.418,-64.453,26.367,0.000
1587068793.100,-70.801,-446.289,-438.965,2.441,0.000
1587068793.104,5.859,-158.691,-128.418,1.953,0.000
1587068793.108,100.586,585.938,255.859,14.648,0.000
1587068793.112,39.551,20.020,-89.355,33.691,0.000
1587068793.116,-74.707,-461.914,-348.145,13.184,0.000
1587068793.120,-43.945,68.359,-59.082,-12.695,0.000
1587068793.124,94.238,352.051,160.645,23.438,0.000
1587068793.128,89.844,234.863,116.699,55.664,0.000
1587068793.132,-41.992,1.465,-3.906,39.551,0.000
1587068793.135,-20.020,-125.977,-135.254,36.621,0.000
1587068793.139,105.957,124.023,64.941,32.227,0.000
1587068793.143,85.449,159.180,97.168,22.949,0.000
1587068793.147,-44.434,-309.570,-260.254,15.137,0.000
1587068793.151,-65.918,-619.141,-432.129,-7.324,0.000
1587068793.155,27.832,-494.629,-370.605,-4.883,0.000
1587068793.159,86.426,-139.648,-128.906,16.113,0.000
1587068793.163,20.508,61.035,13.672,32.715,0.000
1587068793.167,-54.199,-245.117,-301.758,21.973,0.000
1587068793.171,1.465,-246.582,-248.535,5.371,0.000
1587068793.175,100.098,63.965,15.625,17.090,0.000
1587068793.178,52.734,229.492,109.863,38.086,0.000
1587068793.182,-63.477,-138.184,-196.777,33.691,0.000
1587068793.186,-43.457,-365.723,-337.891,9.277,0.000
1587068793.190,60.059,227.051,109.375,-10.742,0.000
1587068793.194,62.988,261.230,102.051,15.625,0.000
1587068793.198,-44.434,-291.016,-282.227,26.367,0.000
1587068793.202,-59.082,-792.969,-545.410,20.020,0.000
1587068793.206,59.082,-413.086,-242.676,30.273,0.000
1587068793.210,86.914,405.762,180.664,24.414,0.000
1587068793.214,-27.344,39.062,-113.770,8.301,0.000
1587068793.217,-84.473,-438.965,-422.852,-10.254,0.000
1587068793.221,17.090,7.324,-70.801,-13.672,0.000
1587068793.225,99.609,579.590,277.832,-3.906,0.000
1587068793.229,2.930,200.195,-13.672,5.859,0.000
1587068793.233,-98.145,-456.055,-404.297,-4.395,0.000
1587068793.237,-21.973,-258.789,-231.934,-8.789,0.000
1587068793.241,89.844,94.238,22.461,7.324,0.000
1587068793.245,40.527,-91.309,-113.770,21.484,0.000
1587068793.249,-69.336,-699.219,-498.535,20.508,0.000
1587068793.253,-41.504,-300.781,-220.703,0.000,0.000
1587068793.257,75.195,519.531,236.328,-3.418,0.000
1587068793.260,61.523,316.895,45.410,-2.441,0.000
1587068793.264,-71.289,-432.617,-425.293,-13.672,0.000
1587068793.268,-94.238,-578.125,-449.707,-15.625,0.000
1587068793.272,17.090,-55.176,-89.355,-22.949,0.000
1587068793.276,69.824,300.781,111.816,-13.184,0.000
1587068793.280,-26.855,80.078,-29.785,-0.488,0.000
1587068793.284,-100.586,-239.746,-313.477,-21.973,0.000
1587068793.288,-5.371,-114.258,-247.559,-27.832,0.000
1587068793.292,86.914,-105.957,-159.668,0.000,0.000
1587068793.296,7.812,-98.633,-142.578,2.441,0.000
1587068793.300,-103.027,-56.152,-201.660,-31.738,0.000
1587068793.303,-51.758,-154.785,-240.234,-39.551,0.000
1587068793.307,61.523,301.758,117.188,-26.855,0.000
1587068793.311,17.578,410.156,111.328,-12.695,0.000
1587068793.315,-103.027,-87.891,-212.402,-17.090,0.000
1587068793.319,-80.078,-363.281,-406.250,-14.648,0.000
1587068793.323,43.945,-295.898,-288.574,0.977,0.000
1587068793.327,51.270,212.402,95.215,-1.953,0.000
1587068793.331,-71.777,170.410,-58.594,-15.137,0.000
1587068793.335,-105.957,-622.070,-573.730,-15.625,0.000
1587068793.339,10.254,-585.938,-432.129,-15.625,0.000
1587068793.342,64.941,415.527,126.465,-20.020,0.000
1587068793.346,-45.898,444.336,90.820,-10.742,0.000
1587068793.350,-119.629,-312.988,-292.480,-20.020,0.000
1587068793.354,-10.742,-132.324,-110.352,-12.695,0.000
1587068793.358,94.238,455.566,178.711,-1.465,0.000
1587068793.362,10.742,263.672,28.809,-7.812,0.000
1587068793.366,-117.676,-375.000,-344.238,-24.902,0.000
1587068793.370,-64.453,-260.742,-260.742,-35.645,0.000
1587068793.374,53.711,446.289,176.758,-30.273,0.000
1587068793.378,35.156,459.473,105.957,-12.207,0.000
1587068793.382,-80.566,-479.492,-431.152,-8.301,0.000
1587068793.385,-88.867,-741.211,-502.441,-27.832,0.000
1587068793.389,20.508,125.488,-20.996,-37.109,0.000
1587068793.393,36.133,517.090,97.168,-34.180,0.000
1587068793.397,-70.801,-398.438,-390.137,-19.531,0.000
1587068793.401,-117.188,-598.145,-453.613,-36.621,0.000
1587068793.405,-20.508,348.633,57.617,-61.523,0.000
1587068793.409,55.176,550.293,158.691,-38.574,0.000
1587068793.413,-33.203,125.000,-113.281,-25.391,0.000
1587068793.417,-120.117,-221.191,-318.848,-29.297,0.000
1587068793.421,-32.715,-11.230,-177.734,-41.504,0.000
1587068793.425,62.500,347.168,90.820,-44.434,0.000
1587068793.428,-3.906,29.785,-102.539,-23.438,0.000
1587068793.432,-123.535,-293.457,-334.961,-35.156,0.000
1587068793.436,-84.961,-0.488,-174.316,-44.434,0.000
1587068793.440,41.504,110.352,-84.961,-29.297,0.000
1587068793.444,10.254,-92.285,-102.539,-25.879,0.000
1587068793.448,-120.117,14.648,-75.684,-40.527,0.000
1587068793.452,-109.375,-91.309,-313.477,-48.340,0.000
1587068793.456,16.602,-72.754,-259.766,-37.109,0.000
1587068793.460,33.203,275.879,59.082,-25.879,0.000
1587068793.464,-80.566,186.523,-38.574,-33.691,0.000
1587068793.467,-116.699,-250.488,-391.113,-28.320,0.000
1587068793.471,1.465,-205.078,-292.480,-9.277,0.000
1587068793.475,55.176,106.445,-24.902,-13.672,0.000
1587068793.479,-48.340,22.949,-160.645,-27.832,0.000
1587068793.483,-134.277,-278.320,-404.785,-45.898,0.000
1587068793.487,-57.129,-648.926,-506.836,-35.645,0.000
1587068793.491,42.969,-77.637,-119.141,-22.461,0.000
1587068793.495,-15.137,602.051,162.109,-22.949,0.000
1587068793.499,-140.137,-191.406,-351.562,-46.875,0.000
1587068793.503,-103.516,-601.562,-477.539,-65.430,0.000
1587068793.507,17.578,244.629,54.199,-51.270,0.000
1587068793.510,8.301,733.887,253.906,-40.039,0.000
1587068793.514,-112.793,13.184,-190.430,-35.645,0.000
1587068793.518,-130.859,-479.004,-501.953,-46.875,0.000
1587068793.522,-11.230,-10.254,-170.898,-58.105,0.000
1587068793.526,37.109,316.406,88.867,-28.320,0.000
1587068793.530,-50.293,-138.672,-239.258,-6.348,0.000
1587068793.534,-111.816,-542.969,-553.711,-29.785,0.000
1587068793.538,-19.043,37.109,-118.164,-38.086,0.000
1587068793.542,62.988,682.129,271.973,-31.250,0.000
1587068793.546,-29.297,19.043,-177.734,-25.879,0.000
1587068793.550,-134.766,-886.719,-637.207,-30.273,0.000
1587068793.553,-73.730,-259.277,-308.594,-54.199,0.000
1587068793.557,47.852,305.176,-12.695,-49.316,0.000
1587068793.561,7.812,192.383,-45.898,-31.250,0.000
1587068793.565,-123.535,-93.750,-322.266,-41.504,0.000
1587068793.569,-105.469,-278.320,-409.668,-48.340,0.000
1587068793.573,19.531,150.879,-49.316,-34.668,0.000
1587068793.577,36.133,28.320,-110.352,-8.789,0.000
1587068793.581,-86.426,-397.461,-451.172,-15.137,0.000
1587068793.585,-113.281,-112.305,-313.477,-39.062,0.000
1587068793.589,12.207,165.039,-77.637,-24.902,0.000
1587068793.592,49.805,383.301,104.980,-18.555,0.000
1587068793.596,-73.242,196.777,-64.453,-23.926,0.000
1587068793.600,-139.160,-139.160,-327.148,-27.832,0.000
1587068793.604,-33.691,-67.383,-278.809,-33.691,0.000
1587068793.608,53.223,354.492,27.344,-28.320,0.000
1587068793.612,-30.762,357.422,33.691,-14.160,0.000
1587068793.616,-126.953,-339.355,-383.301,-22.949,0.000
1587068793.620,-61.523,-604.980,-532.227,-25.879,0.000
1587068793.624,41.504,-370.605,-364.746,-22.949,0.000
1587068793.628,3.906,231.934,0.488,-21.973,0.000
1587068793.632,-104.492,31.250,-282.227,-22.461,0.000
1587068793.635,-89.844,-406.738,-444.336,-34.180,0.000
1587068793.639,27.832,228.516,20.508,-39.062,0.000
1587068793.643,36.621,481.445,97.656,-25.391,0.000
1587068793.647,-88.867,21.973,-181.152,-23.926,0.000
1587068793.651,-128.418,-294.434,-380.371,-48.340,0.000
1587068793.655,-7.812,60.059,-114.746,-40.039,0.000
1587068793.659,60.059,595.215,195.312,-24.902,0.000
1587068793.663,-40.039,74.707,-158.691,-22.461,0.000
1587068793.667,-114.746,-586.426,-494.629,-32.715,0.000
1587068793.671,-21.484,-76.660,-133.301,-34.180,0.000
1587068793.675,71.777,540.527,174.805,-29.297,0.000
1587068793.678,-10.254,308.105,-37.598,-28.809,0.000
1587068793.682,-120.605,-565.918,-488.281,-31.250,0.000
1587068793.686,-80.566,-382.812,-277.344,-36.133,0.000
1587068793.690,31.738,622.559,197.266,-34.180,0.000
1587068793.694,21.973,536.621,87.891,-9.766,0.000
1587068793.698,-101.074,-128.418,-291.016,-11.230,0.000
1587068793.702,-101.074,-235.840,-368.164,-48.340,0.000
1587068793.706,6.836,298.340,32.715,-54.688,0.000
1587068793.710,32.715,198.242,-22.461,-32.227,0.000
1587068793.714,-68.359,-512.695,-458.984,-13.672,0.000
1587068793.717,-123.535,-322.266,-345.215,-33.203,0.000
1587068793.721,-19.043,308.105,39.551,-51.758,0.000
1587068793.725,54.199,287.598,16.602,-34.180,0.000
1587068793.729,-40.527,-29.297,-284.180,-22.461,0.000
1587068793.733,-126.465,-293.945,-382.812,-37.109,0.000
1587068793.737,-48.340,-314.941,-330.566,-41.504,0.000
1587068793.741,62.500,130.371,-43.457,-25.879,0.000
1587068793.745,-0.488,291.992,79.590,-14.648,0.000
1587068793.749,-132.812,4.883,-175.781,-27.344,0.000
1587068793.753,-95.703,-73.730,-199.707,-49.805,0.000
1587068793.757,25.879,128.906,-9.766,-45.410,0.000
1587068793.760,20.020,231.445,24.414,-26.367,0.000
1587068793.764,-108.398,0.000,-149.902,-30.273,0.000
1587068793.768,-114.746,-371.094,-417.480,-39.551,0.000
1587068793.772,30.762,-282.227,-266.113,-20.020,0.000
1587068793.776,60.059,279.297,69.336,-10.254,0.000
1587068793.780,-75.684,266.113,-21.973,-26.367,0.000
1587068793.784,-128.906,-312.988,-378.418,-40.527,0.000
1587068793.788,-16.602,-161.621,-205.078,-26.855,0.000
1587068793.792,58.594,297.363,106.934,-33.203,0.000
1587068793.796,-36.621,232.910,8.301,-44.434,0.000
1587068793.800,-128.418,-323.242,-360.352,-33.203,0.000
1587068793.803,-54.688,-547.852,-483.398,-33.203,0.000
1587068793.807,48.828,109.375,-43.457,-33.203,0.000
1587068793.811,5.859,442.383,115.234,-5.371,0.000
1587068793.815,-110.352,-355.469,-373.047,-6.836,0.000
1587068793.819,-87.402,-616.699,-488.281,-32.227,0.000
1587068793.823,29.297,356.934,79.590,-29.297,0.000
1587068793.827,28.320,707.520,240.234,-22.461,0.000
1587068793.831,-74.219,-319.336,-340.820,-20.508,0.000
1587068793.835,-98.145,-754.395,-555.176,-30.273,0.000
1587068793.839,-7.812,368.652,92.773,-41.504,0.000
1587068793.842,44.922,785.156,254.883,-20.508,0.000
1587068793.846,-59.570,104.004,-147.461,-13.184,0.000
1587068793.850,-129.883,-562.012,-504.395,-32.715,0.000
1587068793.854,-36.133,-285.645,-305.176,-28.320,0.000
1587068793.858,62.988,316.406,36.621,-14.648,0.000
1587068793.862,1.465,-120.117,-164.062,6.348,0.000
1587068793.866,-111.816,-562.988,-427.246,-4.395,0.000
1587068793.870,-70.312,-66.895,-257.812,-41.016,0.000
1587068793.874,46.875,344.727,5.371,-40.039,0.000
1587068793.878,19.043,58.105,-118.164,-18.066,0.000
1587068793.882,-106.445,-246.582,-346.191,-25.879,0.000
1587068793.885,-93.262,-52.246,-264.160,-48.828,0.000
1587068793.889,34.180,188.965,-21.973,-44.922,0.000
1587068793.893,49.805,305.176,61.523,-22.461,0.000
1587068793.897,-79.590,-144.043,-315.918,-18.555,0.000
1587068793.901,-125.488,-337.402,-391.602,-46.387,0.000
1587068793.905,-9.277,-73.242,-196.777,-51.270,0.000
1587068793.909,63.965,-36.621,-199.219,-18.066,0.000
1587068793.913,-36.621,189.453,-42.480,-16.602,0.000
1587068793.917,-129.395,-9.766,-222.656,-37.109,0.000
1587068793.921,-53.223,-17.578,-216.309,-56.152,0.000
1587068793.925,44.434,250.977,8.789,-46.875,0.000
1587068793.928,-20.508,313.965,84.961,-19.531,0.000
1587068793.932,-127.441,-89.355,-233.887,-31.738,0.000
1587068793.936,-78.125,-235.352,-341.797,-51.758,0.000
1587068793.940,30.273,297.363,63.965,-50.293,0.000
1587068793.944,0.000,321.777,89.355,-42.480,0.000
1587068793.948,-113.281,-254.395,-293.945,-41.992,0.000
1587068793.952,-108.887,-503.906,-429.688,-46.387,0.000
1587068793.956,22.461,66.895,-18.066,-41.504,0.000
1587068793.960,59.082,587.402,212.402,-16.602,0.000
1587068793.964,-62.500,7.812,-210.449,-18.066,0.000
1587068793.967,-130.859,-630.859,-487.305,-48.340,0.000
1587068793.971,-36.133,-51.270,-75.195,-64.941,0.000
1587068793.975,39.551,598.145,217.773,-40.527,0.000
1587068793.979,-46.387,143.555,-137.695,-15.137,0.000
1587068793.983,-139.648,-723.145,-562.500,-25.879,0.000
1587068793.987,-68.359,-319.336,-229.492,-44.922,0.000
1587068793.991,44.434,267.578,5.371,-38.574,0.000
1587068793.995,-15.137,-96.191,-308.594,-19.043,0.000
1587068793.999,-134.277,-729.004,-630.859,-30.273,0.000
1587068794.003,-108.887,-346.191,-339.844,-63.965,0.000
1587068794.007,26.855,450.684,73.242,-65.430,0.000
1587068794.010,28.809,355.469,20.508,-36.133,0.000
1587068794.014,-113.281,-119.141,-330.078,-29.785,0.000
1587068794.018,-119.629,-269.043,-374.512,-46.875,0.000
1587068794.022,3.418,126.953,-41.016,-41.504,0.000
1587068794.026,20.996,361.328,60.059,-27.344,0.000
1587068794.030,-98.145,110.840,-126.953,-30.273,0.000
1587068794.034,-147.461,-187.500,-355.469,-48.828,0.000
1587068794.038,-26.855,-164.062,-316.406,-40.039,0.000
1587068794.042,61.523,181.641,-16.113,-12.695,0.000
1587068794.046,-41.992,224.609,3.418,-10.254,0.000
1587068794.050,-148.926,-77.637,-252.441,-32.227,0.000
1587068794.053,-73.730,-150.879,-260.742,-51.758,0.000
1587068794.057,36.133,181.641,36.133,-44.922,0.000
1587068794.061,-14.648,295.410,43.457,-26.367,0.000
1587068794.065,-138.184,-110.352,-271.973,-28.809,0.000
1587068794.069,-101.074,-322.266,-419.922,-36.133,0.000
1587068794.073,28.809,-389.648,-338.867,-18.555,0.000
1587068794.077,5.859,81.543,9.277,-21.484,0.000
1587068794.081,-119.629,157.715,-128.906,-42.480,0.000
1587068794.085,-119.629,-498.535,-552.246,-33.203,0.000
1587068794.089,7.812,-240.234,-270.020,-21.484,0.000
1587068794.092,48.340,495.605,159.180,-16.602,0.000
1587068794.096,-61.523,511.719,106.934,-14.648,0.000
1587068794.100,-133.301,-376.465,-399.414,-16.113,0.000
1587068794.104,-32.227,-493.652,-356.445,-6.836,0.000
1587068794.108,56.152,550.293,236.328,-1.953,0.000
1587068794.112,-21.973,242.676,-109.863,-2.441,0.000
1587068794.116,-126.953,-586.426,-515.625,-17.578,0.000
1587068794.120,-76.660,-325.684,-311.523,-33.203,0.000
1587068794.124,29.297,500.000,104.004,-50.293,0.000
1587068794.128,-8.789,562.012,102.539,-39.062,0.000
1587068794.132,-125.488,-338.379,-376.953,-28.320,0.000
1587068794.135,-95.215,-442.871,-380.371,-48.340,0.000
1587068794.139,24.414,284.180,6.348,-51.270,0.000
1587068794.143,21.484,339.844,61.035,-26.855,0.000
1587068794.147,-101.562,-220.215,-244.141,-27.832,0.000
1587068794.151,-143.066,-353.516,-374.512,-63.477,0.000
1587068794.155,-24.902,174.316,-49.805,-60.059,0.000
1587068794.159,49.316,408.691,93.262,-29.297,0.000
1587068794.163,-53.711,-357.910,-303.223,-15.137,0.000
1587068794.167,-128.418,-576.172,-424.316,-24.902,0.000
1587068794.171,-46.387,173.828,-56.152,-45.898,0.000
1587068794.175,49.316,365.234,43.457,-44.434,0.000
1587068794.178,-18.066,-61.523,-275.879,-29.785,0.000
1587068794.182,-139.160,-332.520,-396.973,-35.645,0.000
1587068794.186,-77.637,2.930,-195.312,-42.480,0.000
1587068794.190,58.594,118.164,-112.793,-17.090,0.000
1587068794.194,20.020,-190.918,-311.523,2.930,0.000
1587068794.198,-116.211,-173.828,-347.656,-16.602,0.000
1587068794.202,-95.703,-349.609,-425.781,-26.367,0.000
1587068794.206,21.484,-48.828,-216.309,-30.273,0.000
1587068794.210,31.250,504.883,108.887,-18.066,0.000
1587068794.214,-86.914,229.004,-99.609,-19.531,0.000
1587068794.217,-120.117,-205.078,-393.066,-24.414,0.000
1587068794.221,-15.625,37.109,-212.402,-20.508,0.000
1587068794.225,61.523,317.383,19.043,-5.371,0.000
1587068794.229,-32.715,190.430,-24.902,-3.906,0.000
1587068794.233,-132.324,-144.531,-304.199,-34.668,0.000
1587068794.237,-28.809,-608.398,-473.633,-28.320,0.000
1587068794.241,55.664,-60.547,-88.867,-9.766,0.000
1587068794.245,-24.902,599.121,166.504,-10.254,0.000
1587068794.249,-125.000,-130.859,-314.453,-20.508,0.000
1587068794.253,-75.684,-316.895,-293.945,-24.902,0.000
1587068794.257,47.363,333.984,94.238,-25.879,0.000
1587068794.260,42.480,485.352,112.793,3.906,0.000
1587068794.264,-80.078,-146.484,-264.648,5.859,0.000
1587068794.268,-105.469,-626.953,-573.730,-28.320,0.000
1587068794.272,24.414,-115.234,-319.824,-14.160,0.000
1587068794.276,63.477,425.781,64.941,3.418,0.000
1587068794.280,-66.406,43.457,-156.738,-9.766,0.000
1587068794.284,-115.723,-499.023,-545.410,-19.043,0.000
1587068794.288,-8.789,62.500,-103.516,-32.227,0.000
1587068794.292,53.223,633.789,211.914,-41.016,0.000
1587068794.296,-43.945,-52.734,-242.676,-29.785,0.000
1587068794.300,-124.512,-869.141,-646.973,-19.043,0.000
1587068794.303,-42.480,-58.105,-125.000,-30.762,0.000
1587068794.307,49.805,666.992,203.125,-39.062,0.000
1587068794.311,-6.836,150.879,-85.938,-31.250,0.000
1587068794.315,-113.770,-486.816,-442.871,-39.551,0.000
1587068794.319,-90.332,-368.164,-399.414,-45.898,0.000
1587068794.323,42.480,190.918,-19.531,-32.715,0.000
1587068794.327,65.430,-27.832,-155.762,-5.371,0.000
1587068794.331,-78.125,-471.680,-481.445,-15.137,0.000
1587068794.335,-113.281,-94.238,-332.520,-51.758,0.000
1587068794.339,8.301,269.531,-82.031,-41.992,0.000
1587068794.342,38.086,494.629,114.258,-36.133,0.000
1587068794.346,-74.219,268.555,-61.035,-40.039,0.000
1587068794.350,-126.465,-100.586,-313.477,-44.922,0.000
1587068794.354,-21.484,-70.801,-270.996,-41.504,0.000
1587068794.358,49.805,288.574,-5.859,-27.344,0.000
1587068794.362,-16.602,268.066,-20.020,-16.602,0.000
1587068794.366,-108.398,-358.398,-400.879,-34.180,0.000
1587068794.370,-51.270,-527.344,-496.094,-41.504,0.000
1587068794.374,63.477,-315.430,-403.320,-24.902,0.000
1587068794.378,17.090,148.926,-76.172,-13.672,0.000
1587068794.382,-94.727,93.262,-194.336,-12.695,0.000
1587068794.385,-84.961,-278.809,-373.535,-29.297,0.000
1587068794.389,16.602,163.086,-12.695,-40.039,0.000
1587068794.393,19.531,449.707,106.934,-30.762,0.000
1587068794.397,-102.539,-23.926,-240.723,-34.668,0.000
1587068794.401,-133.789,-394.531,-437.988,-47.852,0.000
1587068794.405,-13.184,115.234,-57.129,-45.898,0.000
1587068794.409,37.598,587.891,154.297,-25.391,0.000
1587068794.413,-69.824,-28.809,-249.023,-20.020,0.000
1587068794.417,-128.418,-640.137,-515.137,-39.062,0.000
1587068794.421,-16.602,-139.648,-141.602,-27.344,0.000
1587068794.425,78.613,617.676,199.219,-18.066,0.000
1587068794.428,-28.809,346.191,-33.691,-33.203,0.000
1587068794.432,-139.160,-678.223,-562.500,-32.715,0.000
1587068794.436,-75.195,-501.465,-389.648,-42.480,0.000
1587068794.440,26.367,603.516,160.645,-52.734,0.000
1587068794.444,-4.395,505.371,58.594,-33.691,0.000
1587068794.448,-119.141,-230.469,-384.766,-40.039,0.000
1587068794.452,-119.629,-229.980,-379.395,-55.664,0.000
1587068794.456,0.488,343.262,56.641,-53.711,0.000
1587068794.460,34.668,146.973,-153.320,-25.391,0.000
1587068794.464,-70.312,-695.312,-585.449,-5.371,0.000
1587068794.467,-120.117,-549.316,-422.363,-37.598,0.000
1587068794.471,-6.348,263.184,-53.223,-33.203,0.000
1587068794.475,75.684,283.691,-76.172,-1.953,0.000
1587068794.479,-50.781,-170.898,-437.012,-19.531,0.000
1587068794.483,-145.020,-156.738,-375.000,-43.945,0.000
1587068794.487,-52.246,-160.645,-340.820,-43.945,0.000
1587068794.491,34.668,90.332,-179.688,-36.621,0.000
1587068794.495,-25.879,217.285,-74.707,-17.578,0.000
1587068794.499,-132.324,-103.516,-294.434,-32.227,0.000
1587068794.503,-94.727,-143.555,-369.629,-54.688,0.000
1587068794.507,32.227,80.078,-239.746,-50.293,0.000
1587068794.510,20.996,214.355,-57.617,-28.809,0.000
1587068794.514,-108.887,49.316,-165.039,-32.715,0.000
1587068794.518,-109.375,-179.199,-395.020,-56.152,0.000
1587068794.522,14.648,-335.449,-376.465,-41.016,0.000
1587068794.526,21.973,8.789,-99.121,-31.250,0.000
1587068794.530,-102.539,254.883,-97.656,-41.016,0.000
1587068794.534,-141.602,-329.102,-479.004,-52.734,0.000
1587068794.538,-25.879,-197.754,-257.812,-49.805,0.000
1587068794.542,38.574,553.223,150.391,-43.457,0.000
1587068794.546,-65.430,406.250,-32.715,-46.875,0.000
1587068794.550,-146.973,-378.906,-475.098,-49.316,0.000
1587068794.553,-59.082,-430.664,-451.172,-47.363,0.000
1587068794.557,36.133,262.207,-8.301,-41.992,0.000
1587068794.561,-13.672,542.969,118.164,-31.250,0.000
1587068794.565,-117.676,-319.336,-424.805,-23.926,0.000
1587068794.569,-77.637,-767.090,-619.141,-5.371,0.000
1587068794.573,44.922,348.633,43.945,-22.949,0.000
1587068794.577,28.809,647.949,96.191,-38.086,0.000
1587068794.581,-104.980,-228.027,-376.953,-19.531,0.000
1587068794.585,-124.023,-494.141,-461.914,-36.621,0.000
1587068794.589,14.160,174.805,-81.543,-41.016,0.000
1587068794.592,52.734,591.309,122.559,-20.508,0.000
1587068794.596,-66.406,38.086,-269.043,-33.691,0.000
1587068794.600,-120.117,-652.344,-564.453,-42.969,0.000
1587068794.604,-17.578,-208.984,-257.812,-33.691,0.000
1587068794.608,58.105,520.996,64.453,-20.996,0.000
1587068794.612,-23.438,-260.254,-354.980,-7.812,0.000
1587068794.616,-123.535,-635.742,-527.832,-20.020,0.000
1587068794.620,-44.922,179.688,-104.492,-28.809,0.000
1587068794.624,73.242,395.020,56.152,-14.648,0.000
1587068794.628,14.160,326.172,63.965,-26.367,0.000
1587068794.632,-115.723,58.594,-150.879,-45.898,0.000
1587068794.635,-98.145,-46.875,-305.176,-58.594,0.000
1587068794.639,26.855,228.027,-47.363,-57.129,0.000
1587068794.643,20.508,279.785,6.348,-37.109,0.000
1587068794.647,-105.469,-220.703,-331.543,-46.875,0.000
1587068794.651,-131.348,-556.152,-464.355,-62.988,0.000
1587068794.655,-10.742,-229.980,-324.219,-43.945,0.000
1587068794.659,64.453,-46.875,-256.348,-10.254,0.000
1587068794.663,-33.691,62.012,-200.684,-7.812,0.000
1587068794.667,-119.629,-278.809,-449.707,-30.762,0.000
1587068794.671,-41.992,-347.168,-386.719,-55.664,0.000
1587068794.675,29.297,174.316,-25.391,-60.059,0.000
1587068794.678,-56.641,385.742,66.895,-49.805,0.000
1587068794.682,-152.832,-94.727,-293.457,-49.805,0.000
1587068794.686,-72.266,-267.090,-368.652,-37.598,0.000
1587068794.690,49.805,407.715,93.262,-20.996,0.000
1587068794.694,16.602,386.230,19.531,-16.113,0.000
1587068794.698,-112.305,-292.480,-400.879,-23.438,0.000
1587068794.702,-105.957,-463.379,-401.855,-33.691,0.000
1587068794.706,23.926,246.094,43.945,-33.203,0.000
1587068794.710,28.809,736.328,226.562,-26.855,0.000
1587068794.714,-86.426,106.934,-169.434,-22.949,0.000
1587068794.717,-109.863,-793.945,-595.215,-17.578,0.000
1587068794.721,1.465,-264.648,-207.031,-20.508,0.000
1587068794.725,60.547,480.957,99.121,-19.531,0.000
1587068794.729,-40.039,-42.969,-295.898,1.953,0.000
1587068794.733,-129.395,-406.738,-498.535,-14.160,0.000
1587068794.737,-41.992,47.852,-145.996,-38.086,0.000
1587068794.741,57.129,482.422,163.086,-14.648,0.000
1587068794.745,-10.742,19.531,-221.191,1.465,0.000
1587068794.749,-128.418,-675.293,-603.516,-11.719,0.000
1587068794.753,-85.938,-230.957,-289.062,-27.832,0.000
1587068794.757,55.664,613.281,138.672,-15.137,0.000
1587068794.760,33.691,221.680,-97.656,2.930,0.000
1587068794.764,-110.352,-563.965,-562.012,-17.090,0.000
1587068794.768,-104.004,-424.805,-467.773,-34.180,0.000
1587068794.772,17.090,199.219,-74.219,-34.180,0.000
1587068794.776,25.391,358.887,19.043,-34.180,0.000
1587068794.780,-97.168,-67.383,-295.898,-35.645,0.000
1587068794.784,-135.742,-383.789,-446.289,-40.527,0.000
1587068794.788,-23.438,-169.922,-279.785,-40.527,0.000
1587068794.792,48.828,-86.426,-255.371,-23.926,0.000
1587068794.796,-49.805,-196.777,-361.816,-22.949,0.000
1587068794.800,-140.137,-6.348,-313.477,-43.457,0.000
1587068794.803,-64.453,39.062,-214.844,-48.340,0.000
1587068794.807,33.203,399.414,62.012,-48.340,0.000
1587068794.811,-16.113,434.082,54.199,-34.180,0.000
1587068794.815,-138.672,31.738,-234.863,-52.734,0.000
1587068794.819,-102.051,-236.328,-395.020,-69.336,0.000
1587068794.823,31.738,119.629,-116.211,-52.734,0.000
1587068794.827,15.137,517.578,152.344,-26.855,0.000
1587068794.831,-97.168,133.301,-133.789,-21.484,0.000
1587068794.835,-101.562,-593.262,-580.078,-45.898,0.000
1587068794.839,11.719,-436.035,-400.879,-49.805,0.000
1587068794.842,37.598,243.164,-2.441,-39.551,0.000
1587068794.846,-70.801,199.707,-113.281,-33.691,0.000
1587068794.850,-117.676,-560.059,-560.547,-38.574,0.000
1587068794.854,-9.277,-603.027,-455.566,-35.645,0.000
1587068794.858,59.570,458.496,122.070,-38.086,0.000
1587068794.862,-31.738,214.844,-168.457,-19.043,0.000
1587068794.866,-124.023,-582.520,-522.461,-34.180,0.000
1587068794.870,-57.617,-236.328,-218.750,-61.035,0.000
1587068794.874,39.551,614.746,169.922,-57.129,0.000
1587068794.878,-12.207,541.016,66.406,-38.086,0.000
1587068794.882,-120.117,-376.465,-423.340,-31.738,0.000
1587068794.885,-101.074,-528.320,-421.875,-53.223,0.000
1587068794.889,5.371,420.898,91.797,-60.059,0.000
1587068794.893,8.789,610.352,84.961,-46.387,0.000
1587068794.897,-108.398,-377.441,-389.160,-37.598,0.000
1587068794.901,-128.418,-689.941,-463.867,-55.664,0.000
1587068794.905,-4.395,180.176,-35.156,-68.359,0.000
1587068794.909,44.434,507.324,95.703,-52.734,0.000
1587068794.913,-62.988,-20.996,-265.137,-48.340,0.000
1587068794.917,-151.367,-332.520,-437.012,-67.871,0.000
1587068794.921,-60.059,46.387,-185.059,-77.637,0.000
1587068794.925,31.250,400.879,32.227,-66.895,0.000
1587068794.928,-60.547,-31.250,-286.133,-59.570,0.000
1587068794.932,-173.340,-438.477,-497.070,-93.750,0.000
1587068794.936,-125.488,-17.090,-200.684,-115.723,0.000
1587068794.940,-20.020,229.492,-117.188,-93.262,0.000
1587068794.944,-57.617,-197.266,-349.121,-70.312,0.000
1587068794.948,-202.637,-252.930,-349.121,-105.469,0.000
1587068794.952,-207.520,-129.395,-342.773,-152.344,0.000
1587068794.956,-94.727,43.457,-169.434,-156.738,0.000
1587068794.960,-105.469,83.008,-102.539,-159.668,0.000
1587068794.964,-260.254,-108.887,-300.293,-181.641,0.000
1587068794.967,-305.664,-286.621,-419.434,-209.961,0.000
1587068794.971,-179.199,-79.590,-292.969,-225.098,0.000
1587068794.975,-141.602,166.992,-100.586,-224.609,0.000
1587068794.979,-253.418,15.137,-230.957,-220.215,0.000
1587068794.983,-337.891,-229.980,-414.551,-242.676,0.000
1587068794.987,-242.188,-662.598,-551.270,-234.863,0.000
1587068794.991,-141.602,-197.266,-200.684,-212.891,0.000
1587068794.995,-210.449,518.066,24.414,-206.543,0.000
1587068794.999,-315.918,-154.297,-435.059,-207.031,0.000
1587068795.003,-265.137,-361.328,-400.879,-236.816,0.000
1587068795.007,-133.789,404.785,57.129,-221.680,0.000
1587068795.010,-136.719,652.832,117.676,-161.133,0.000
1587068795.014,-232.910,-188.477,-403.809,-145.020,0.000
1587068795.018,-208.496,-738.770,-604.980,-139.160,0.000
1587068795.022,-68.359,-196.777,-301.758,-121.094,0.000
1587068795.026,-44.434,444.824,25.391,-107.910,0.000
1587068795.030,-133.301,-39.551,-272.949,-73.242,0.000
1587068795.034,-151.855,-615.234,-621.094,-66.406,0.000
1587068795.038,-41.016,120.605,-112.793,-71.777,0.000
1587068795.042,47.363,702.148,187.500,-38.574,0.000
1587068795.046,-15.625,9.277,-247.559,-6.836,0.000
1587068795.050,-88.867,-911.133,-707.520,-1.465,0.000
1587068795.053,-9.766,-226.074,-289.062,-12.695,0.000
1587068795.057,109.863,709.961,168.945,0.977,0.000
1587068795.061,46.387,406.738,-51.270,12.207,0.000
1587068795.065,-73.730,-207.520,-433.594,3.418,0.000
1587068795.069,-15.137,-343.750,-446.777,2.930,0.000
1587068795.073,114.258,30.273,-251.953,11.719,0.000
1587068795.077,100.586,36.133,-213.867,40.039,0.000
1587068795.081,-30.273,-249.512,-348.145,52.734,0.000
1587068795.085,-33.691,-138.184,-367.676,27.344,0.000
1587068795.089,98.145,260.742,-120.117,29.785,0.000
1587068795.092,127.930,80.566,-128.906,53.223,0.000
1587068795.096,9.277,-187.988,-322.266,53.223,0.000
1587068795.100,-38.574,-83.984,-352.051,43.945,0.000
1587068795.104,76.172,-32.227,-290.039,40.527,0.000
1587068795.108,146.484,325.684,-54.688,44.434,0.000
1587068795.112,50.781,279.297,-102.539,55.176,0.000
1587068795.116,-49.316,-368.652,-462.402,31.738,0.000
1587068795.120,26.367,-596.191,-569.336,22.461,0.000
1587068795.124,129.395,-378.418,-410.156,43.457,0.000
1587068795.128,74.707,276.855,-1.953,38.086,0.000
1587068795.132,-39.551,87.402,-299.805,41.504,0.000
1587068795.135,-11.719,-497.559,-532.227,46.387,0.000
1587068795.139,102.539,78.613,-100.098,44.434,0.000
1587068795.143,99.121,357.422,-67.383,53.223,0.000
1587068795.147,-20.020,-96.680,-388.184,45.410,0.000
1587068795.151,-26.855,-430.664,-476.562,44.434,0.000
1587068795.155,80.566,63.477,-125.977,40.527,0.000
1587068795.159,110.352,679.688,141.113,42.480,0.000
1587068795.163,32.227,132.324,-218.750,61.035,0.000
1587068795.167,-25.391,-825.195,-687.500,60.059,0.000
1587068795.171,44.434,-516.113,-450.195,31.738,0.000
1587068795.175,114.258,636.230,145.508,20.508,0.000
1587068795.178,34.668,381.836,-109.375,30.762,0.000
1587068795.182,-80.566,-438.965,-501.953,13.672,0.000
1587068795.186,-8.301,-99.609,-261.719,7.812,0.000
1587068795.190,109.863,491.211,48.340,12.695,0.000
1587068795.194,49.316,226.562,-133.789,16.113,0.000
1587068795.198,-73.242,-338.379,-470.215,13.672,0.000
1587068795.202,-58.105,-152.344,-329.102,-17.090,0.000
1587068795.206,68.848,548.340,75.684,-33.203,0.000
1587068795.210,75.684,381.836,-6.348,-1.465,0.000
1587068795.214,-48.828,-263.672,-398.926,5.859,0.000
1587068795.217,-75.195,-299.805,-423.340,-15.137,0.000
1587068795.221,40.039,228.516,-60.059,-13.672,0.000
1587068795.225,98.633,243.164,-70.801,5.859,0.000
1587068795.229,-1.953,-444.336,-471.191,27.344,0.000
1587068795.233,-82.031,-365.234,-399.902,3.906,0.000
1587068795.237,-7.324,-176.270,-350.586,-23.438,0.000
1587068795.241,70.801,164.551,-160.156,-20.508,0.000
1587068795.245,1.465,367.676,-11.230,-18.066,0.000
1587068795.249,-95.703,-116.211,-322.266,-14.648,0.000
1587068795.253,-45.898,-280.762,-442.871,-23.438,0.000
1587068795.257,67.871,85.449,-145.020,-16.602,0.000
1587068795.260,40.039,214.844,-82.031,4.395,0.000
1587068795.264,-90.820,-25.879,-320.801,-10.254,0.000
1587068795.268,-76.172,-327.148,-479.980,-21.484,0.000
1587068795.272,44.922,1.953,-216.309,-17.578,0.000
1587068795.276,42.480,509.766,60.547,-24.414,0.000
1587068795.280,-71.777,226.562,-153.809,-16.602,0.000
1587068795.284,-97.656,-301.758,-477.051,-13.184,0.000
1587068795.288,3.906,-520.508,-401.367,-20.020,0.000
1587068795.292,56.641,188.477,49.805,-18.555,0.000
1587068795.296,-42.969,538.574,29.785,-25.391,0.000
1587068795.300,-126.465,-305.176,-476.074,-48.340,0.000
1587068795.303,-36.133,-471.191,-494.141,-48.828,0.000
1587068795.307,54.688,82.031,-172.852,-29.785,0.000
1587068795.311,-14.160,283.203,-150.391,-13.672,0.000
1587068795.315,-104.492,-375.488,-532.715,-9.766,0.000
1587068795.319,-62.012,-711.914,-600.098,-17.578,0.000
1587068795.323,33.691,347.656,20.508,-40.527,0.000
1587068795.327,17.578,643.066,84.961,-30.762,0.000
1587068795.331,-106.445,-243.652,-375.977,-26.367,0.000
1587068795.335,-109.375,-481.934,-475.586,-43.457,0.000
1587068795.339,15.625,303.223,-60.547,-45.410,0.000
1587068795.342,45.898,619.141,96.680,-35.156,0.000
1587068795.346,-65.430,-83.008,-336.426,-19.043,0.000
1587068795.350,-104.980,-660.156,-580.566,-15.625,0.000
1587068795.354,-3.418,-51.758,-165.039,-36.133,0.000
1587068795.358,62.988,653.320,119.629,-33.203,0.000
1587068795.362,-28.809,-144.531,-360.352,-8.301,0.000
1587068795.366,-108.887,-886.719,-676.270,-18.555,0.000
1587068795.370,-39.062,-215.820,-361.328,-31.738,0.000
1587068795.374,44.922,367.188,-78.613,-36.133,0.000
1587068795.378,-10.254,211.426,-178.711,-32.227,0.000
1587068795.382,-124.023,-88.867,-382.324,-29.785,0.000
1587068795.385,-79.102,34.180,-312.012,-27.832,0.000
1587068795.389,44.434,394.531,-1.465,-17.090,0.000
1587068795.393,37.109,427.246,2.441,4.395,0.000
1587068795.397,-87.402,-232.422,-413.086,4.883,0.000
1587068795.401,-121.582,-452.148,-437.012,-27.832,0.000
1587068795.405,4.395,-60.059,-333.496,-31.250,0.000
1587068795.409,56.641,-109.863,-351.562,-8.301,0.000
1587068795.413,-72.266,46.875,-209.473,-21.973,0.000
1587068795.417,-131.836,-37.109,-350.098,-30.273,0.000
1587068795.421,-16.113,-103.027,-327.637,-16.602,0.000
1587068795.425,77.148,231.934,-62.012,-1.953,0.000
1587068795.428,-20.996,125.000,-141.113,-4.395,0.000
1587068795.432,-145.020,-302.734,-476.074,-41.992,0.000
1587068795.436,-81.055,-142.090,-333.008,-52.734,0.000
1587068795.440,23.926,318.359,-20.020,-35.645,0.000
1587068795.444,-21.973,156.738,-195.312,-24.414,0.000
1587068795.448,-122.070,-410.645,-514.160,-37.109,0.000
1587068795.452,-96.191,-527.344,-473.145,-51.758,0.000
1587068795.456,28.809,175.781,-46.387,-47.363,0.000
1587068795.460,30.273,674.805,151.367,-33.203,0.000
1587068795.464,-95.215,108.887,-247.070,-28.320,0.000
1587068795.467,-116.699,-554.688,-475.586,-33.203,0.000
1587068795.471,1.465,42.480,-44.922,-37.109,0.000
1587068795.475,50.781,807.129,222.168,-33.691,0.000
1587068795.479,-50.781,203.125,-185.547,-26.855,0.000
1587068795.483,-115.723,-712.402,-586.426,-20.996,0.000
1587068795.487,-30.762,-312.500,-330.566,-20.508,0.000
1587068795.491,56.152,344.238,-119.141,-30.273,0.000
1587068795.495,-11.719,-56.641,-374.023,-15.625,0.000
1587068795.499,-132.324,-630.371,-619.141,-15.137,0.000
1587068795.503,-78.613,-152.344,-275.879,-42.969,0.000
1587068795.507,51.270,605.957,146.484,-49.805,0.000
1587068795.510,25.391,224.121,-168.945,-20.996,0.000
1587068795.514,-108.398,-626.953,-623.535,-9.766,0.000
1587068795.518,-95.215,-499.512,-506.836,-28.320,0.000
1587068795.522,34.180,291.016,-74.219,-37.598,0.000
1587068795.526,38.574,308.594,-101.074,-22.461,0.000
1587068795.530,-86.426,-494.141,-554.688,-7.812,0.000
1587068795.534,-115.723,-289.551,-417.480,-18.066,0.000
1587068795.538,6.836,105.957,-273.438,-15.625,0.000
1587068795.542,57.617,-12.207,-311.035,0.488,0.000
1587068795.546,-51.270,-117.676,-384.277,-6.348,0.000
1587068795.550,-128.906,27.832,-352.539,-35.156,0.000
1587068795.553,-41.016,167.969,-203.125,-29.785,0.000
1587068795.557,55.664,501.953,55.664,-18.066,0.000
1587068795.561,-11.719,489.258,38.574,-17.578,0.000
1587068795.565,-132.324,76.172,-213.867,-22.949,0.000
1587068795.569,-84.473,-201.660,-392.090,-31.738,0.000
1587068795.573,41.016,177.246,-136.230,-25.879,0.000
1587068795.577,13.184,484.375,63.477,-19.043,0.000
1587068795.581,-112.793,25.391,-282.227,-27.832,0.000
1587068795.585,-98.145,-589.844,-602.051,-29.785,0.000
1587068795.589,31.250,-493.652,-425.781,-21.484,0.000
1587068795.592,45.410,373.047,60.059,-12.207,0.000
1587068795.596,-63.477,346.680,-97.168,-15.137,0.000
1587068795.600,-100.586,-545.898,-599.609,-17.578,0.000
1587068795.604,8.789,-283.691,-293.457,-5.859,0.000
1587068795.608,57.617,645.996,175.293,-22.949,0.000
1587068795.612,-44.922,166.504,-224.609,-23.438,0.000
1587068795.616,-133.301,-620.117,-585.449,-28.320,0.000
1587068795.620,-48.340,-223.633,-297.363,-23.438,0.000
1587068795.624,65.918,561.035,108.887,-7.812,0.000
1587068795.628,1.465,525.879,22.461,-2.441,0.000
1587068795.632,-117.188,-381.836,-437.500,-7.812,0.000
1587068795.635,-83.984,-514.160,-438.965,-24.414,0.000
1587068795.639,35.645,426.270,27.344,-34.668,0.000
1587068795.643,41.992,577.637,61.035,-5.371,0.000
1587068795.647,-83.496,-218.262,-361.816,-1.953,0.000
1587068795.651,-104.004,-391.602,-422.852,-39.551,0.000
1587068795.655,11.230,213.867,-91.309,-28.809,0.000
1587068795.659,52.734,387.695,-0.977,-3.418,0.000
1587068795.663,-63.965,-386.719,-401.855,-5.859,0.000
1587068795.667,-148.438,-624.512,-498.535,-48.828,0.000
1587068795.671,-44.922,172.363,-117.188,-54.688,0.000
1587068795.675,44.434,510.254,50.293,-23.926,0.000
1587068795.678,-36.133,-21.484,-327.637,-5.371,0.000
1587068795.682,-116.699,-507.324,-543.457,-18.555,0.000
1587068795.686,-46.875,-124.512,-301.758,-42.480,0.000
1587068795.690,40.039,287.598,-113.281,-26.855,0.000
1587068795.694,-1.953,-27.832,-303.223,-3.906,0.000
1587068795.698,-123.047,-154.785,-384.277,-40.527,0.000
1587068795.702,-105.957,-104.492,-376.465,-57.617,0.000
1587068795.706,41.992,24.902,-257.324,-36.621,0.000
1587068795.710,42.480,263.184,-43.457,-25.879,0.000
1587068795.714,-97.168,120.605,-224.609,-42.480,0.000
1587068795.717,-117.676,-238.770,-431.641,-53.223,0.000
1587068795.721,19.531,-323.242,-376.465,-39.062,0.000
1587068795.725,64.453,-101.562,-327.637,-24.902,0.000
1587068795.729,-59.570,110.840,-290.527,-29.785,0.000
1587068795.733,-133.789,-136.719,-408.203,-49.805,0.000
1587068795.737,-33.691,-570.312,-551.270,-43.945,0.000
1587068795.741,63.477,-102.051,-218.262,-33.203,0.000
1587068795.745,-20.996,620.117,57.129,-24.902,0.000
1587068795.749,-123.047,-76.172,-380.859,-30.762,0.000
1587068795.753,-63.477,-360.840,-453.613,-48.340,0.000
1587068795.757,46.875,364.746,-46.387,-40.039,0.000
1587068795.760,21.484,701.172,119.629,-24.902,0.000
1587068795.764,-102.051,-65.918,-374.512,-24.902,0.000
1587068795.768,-73.242,-507.812,-538.574,-23.926,0.000
1587068795.772,64.941,70.801,-224.121,-19.531,0.000
1587068795.776,53.711,409.668,-71.777,-29.297,0.000
1587068795.780,-73.242,-226.562,-430.176,-27.832,0.000
1587068795.784,-110.352,-866.699,-721.191,-39.551,0.000
1587068795.788,-9.766,-48.340,-217.285,-53.711,0.000
1587068795.792,59.570,620.117,54.688,-36.621,0.000
1587068795.796,-37.598,44.922,-259.277,-25.391,0.000
1587068795.800,-125.977,-584.961,-560.547,-41.992,0.000
1587068795.803,-42.969,-68.848,-281.738,-57.617,0.000
1587068795.807,53.223,564.453,39.062,-45.410,0.000
1587068795.811,-15.137,141.602,-203.125,-33.203,0.000
1587068795.815,-127.930,-367.188,-498.535,-39.062,0.000
1587068795.819,-72.266,-296.387,-417.480,-43.457,0.000
1587068795.823,51.758,153.320,-172.852,-18.555,0.000
1587068795.827,25.391,237.793,-150.391,-6.836,0.000
1587068795.831,-110.352,-162.109,-397.461,-35.156,0.000
1587068795.835,-102.051,-322.754,-480.957,-55.176,0.000
1587068795.839,32.227,159.668,-182.129,-41.016,0.000
1587068795.842,42.480,-14.160,-268.066,-28.320,0.000
1587068795.846,-82.031,-423.340,-523.438,-33.691,0.000
1587068795.850,-119.141,-46.387,-348.145,-47.852,0.000
1587068795.854,5.859,168.457,-207.520,-46.875,0.000
1587068795.858,65.918,496.094,35.645,-37.109,0.000
1587068795.862,-45.898,404.785,-36.133,-43.945,0.000
1587068795.866,-138.184,-229.492,-409.180,-48.340,0.000
1587068795.870,-53.711,-514.648,-574.707,-33.691,0.000
1587068795.874,47.363,9.766,-246.094,-35.645,0.000
1587068795.878,-19.531,454.590,46.387,-38.574,0.000
1587068795.882,-125.977,-35.156,-322.754,-33.203,0.000
1587068795.885,-83.008,-616.699,-581.543,-27.832,0.000
1587068795.889,38.574,-462.891,-447.754,-21.484,0.000
1587068795.893,20.020,176.270,-212.891,-33.203,0.000
1587068795.897,-100.098,-131.348,-437.988,-23.926,0.000
1587068795.901,-109.863,-530.762,-546.875,-31.738,0.000
1587068795.905,4.395,98.145,-116.211,-50.293,0.000
1587068795.909,31.250,628.418,94.727,-44.922,0.000
1587068795.913,-74.707,103.027,-259.277,-30.762,0.000
1587068795.917,-120.117,-844.238,-713.379,-19.531,0.000
1587068795.921,-27.344,-549.805,-424.805,-31.250,0.000
1587068795.925,44.434,691.895,200.684,-33.691,0.000
1587068795.928,-28.320,433.105,-110.352,-13.184,0.000
1587068795.932,-133.789,-411.621,-526.367,-19.531,0.000
1587068795.936,-75.195,-90.332,-277.344,-35.156,0.000
1587068795.940,34.668,699.707,142.578,-34.180,0.000
1587068795.944,-20.020,478.027,-46.387,-29.297,0.000
1587068795.948,-131.836,-269.531,-453.613,-27.832,0.000
1587068795.952,-100.098,-354.004,-404.297,-52.734,0.000
1587068795.956,21.973,283.691,-10.254,-52.734,0.000
1587068795.960,32.227,326.172,-120.605,-1.465,0.000
1587068795.964,-68.848,-642.090,-622.070,31.738,0.000
1587068795.967,-104.980,-599.609,-478.027,-11.230,0.000
1587068795.971,-11.230,340.820,-28.320,-58.105,0.000
1587068795.975,42.480,436.523,-33.691,-31.738,0.000
1587068795.979,-62.500,-104.980,-406.738,-22.461,0.000
1587068795.983,-121.094,-170.898,-397.949,-46.387,0.000
1587068795.987,-15.625,-185.059,-384.277,-47.852,0.000
1587068795.991,61.035,189.453,-154.297,-41.504,0.000
1587068795.995,-21.484,370.605,-38.086,-43.945,0.000
1587068795.999,-129.883,-145.508,-333.496,-52.734,0.000
1587068796.003,-58.594,-166.504,-366.211,-53.711,0.000
1587068796.007,53.711,-29.785,-259.277,-45.410,0.000
1587068796.010,3.906,-125.488,-331.055,-36.133,0.000
1587068796.014,-105.469,-274.414,-440.918,-43.457,0.000
1587068796.018,-85.449,-194.824,-387.695,-57.617,0.000
1587068796.022,41.992,-210.938,-374.023,-17.578,0.000
1587068796.026,53.711,-7.812,-247.559,1.953,0.000
1587068796.030,-76.660,145.996,-265.137,-31.250,0.000
1587068796.034,-112.793,-375.000,-513.184,-39.551,0.000
1587068796.038,2.441,-112.793,-293.457,-40.039,0.000
1587068796.042,68.359,626.953,128.418,-22.461,0.000
1587068796.046,-46.875,382.324,-68.359,-27.832,0.000
1587068796.050,-138.184,-391.113,-506.348,-49.316,0.000
1587068796.053,-31.250,-461.426,-458.984,-45.898,0.000
1587068796.057,72.266,182.617,-74.219,-35.156,0.000
1587068796.061,-6.348,324.219,-94.727,-28.809,0.000
1587068796.065,-116.211,-528.320,-578.125,-36.133,0.000
1587068796.069,-62.012,-678.223,-553.223,-32.715,0.000
1587068796.073,56.152,339.355,0.488,-37.109,0.000
1587068796.077,22.949,598.145,80.566,-40.527,0.000
1587068796.081,-107.422,-424.805,-494.629,-48.828,0.000
1587068796.085,-106.934,-724.121,-616.699,-51.758,0.000
1587068796.089,32.227,288.574,-39.062,-44.922,0.000
1587068796.092,50.293,615.234,68.848,-31.250,0.000
1587068796.096,-76.660,-253.906,-399.902,-27.344,0.000
1587068796.100,-118.164,-733.398,-542.480,-42.480,0.000
1587068796.104,-4.883,-181.152,-294.434,-35.645,0.000
1587068796.108,61.523,509.277,34.668,-24.414,0.000
1587068796.112,-25.879,-119.629,-299.805,-5.859,0.000
1587068796.116,-107.422,-878.418,-688.477,-18.555,0.000
1587068796.120,-38.574,69.824,-170.410,-41.016,0.000
1587068796.124,71.289,651.367,119.141,-19.531,0.000
1587068796.128,0.488,207.520,-155.762,-18.555,0.000
1587068796.132,-130.859,-256.836,-415.527,-36.621,0.000
1587068796.135,-81.543,-21.973,-288.574,-45.898,0.000
1587068796.139,43.945,335.449,-60.059,-41.992,0.000
1587068796.143,21.484,184.570,-190.918,-30.273,0.000
1587068796.147,-102.539,-305.664,-493.652,-36.133,0.000
1587068796.151,-92.285,-502.930,-490.723,-32.227,0.000
1587068796.155,38.574,-105.469,-363.281,-21.484,0.000
1587068796.159,61.035,-184.570,-372.070,-5.371,0.000
1587068796.163,-68.359,-246.094,-329.102,-14.648,0.000
1587068796.167,-127.441,-17.578,-301.270,-55.664,0.000
1587068796.171,-5.859,-35.645,-337.402,-36.133,0.000
1587068796.175,70.801,12.695,-256.836,-18.555,0.000
1587068796.178,-21.484,375.488,9.766,-20.020,0.000
1587068796.182,-101.074,-39.551,-336.426,-13.184,0.000
1587068796.186,-44.922,-295.898,-413.086,-27.344,0.000
1587068796.190,48.340,393.066,39.062,-43.457,0.000
1587068796.194,1.953,293.945,-145.020,-25.879,0.000
1587068796.198,-121.094,-459.473,-561.035,-30.762,0.000
1587068796.202,-86.914,-937.012,-697.266,-47.363,0.000
1587068796.206,24.414,-340.332,-299.316,-44.434,0.000
1587068796.210,-3.906,611.816,119.629,-48.828,0.000
1587068796.214,-106.445,149.902,-277.344,-34.668,0.000
1587068796.217,-115.234,-250.488,-433.105,-31.250,0.000
1587068796.221,-6.348,226.562,-155.273,-37.109,0.000
1587068796.225,36.621,693.359,99.121,-32.227,0.000
1587068796.229,-69.336,209.473,-192.383,-27.344,0.000
1587068796.233,-133.301,-359.375,-494.629,-41.992,0.000
1587068796.237,-24.902,61.523,-172.363,-30.273,0.000
1587068796.241,53.223,376.953,-14.160,-13.672,0.000
1587068796.245,-27.832,-88.379,-364.746,-4.395,0.000
1587068796.249,-103.516,-658.203,-635.742,-3.906,0.000
1587068796.253,-60.547,-228.027,-335.449,-32.227,0.000
1587068796.257,43.457,504.395,38.574,-39.551,0.000
1587068796.260,34.180,162.598,-162.109,-26.855,0.000
1587068796.264,-110.840,-416.504,-515.137,-37.109,0.000
1587068796.268,-110.840,-388.672,-445.801,-42.969,0.000
1587068796.272,32.715,73.730,-149.414,-28.809,0.000
1587068796.276,39.551,35.156,-267.578,-9.277,0.000
1587068796.280,-94.727,-706.055,-626.953,-16.113,0.000
1587068796.284,-129.395,-426.758,-465.820,-40.527,0.000
1587068796.288,1.953,97.656,-275.879,-24.902,0.000
1587068796.292,66.406,-73.730,-315.430,1.953,0.000
1587068796.296,-47.852,-330.566,-479.004,8.789,0.000
1587068796.300,-124.512,-204.102,-460.938,-24.414,0.000
1587068796.303,-2.441,-109.375,-389.160,-30.273,0.000
1587068796.307,86.914,304.199,-101.074,-14.160,0.000
1587068796.311,-5.859,361.328,-63.477,-19.531,0.000
1587068796.315,-118.652,23.438,-311.523,-48.828,0.000
1587068796.319,-67.383,-125.488,-397.949,-57.617,0.000
1587068796.323,48.340,193.359,-112.793,-44.434,0.000
1587068796.327,12.207,490.234,29.785,-38.574,0.000
1587068796.331,-103.516,-1.953,-356.934,-39.551,0.000
1587068796.335,-94.727,-500.000,-573.242,-53.223,0.000
1587068796.339,24.902,-32.227,-221.680,-44.922,0.000
1587068796.342,44.922,607.422,126.953,-26.367,0.000
1587068796.346,-82.520,332.520,-107.910,-36.133,0.000
1587068796.350,-130.859,-428.711,-534.180,-41.992,0.000
1587068796.354,-13.184,-600.098,-489.258,-33.203,0.000
1587068796.358,43.945,342.285,62.500,-42.480,0.000
1587068796.362,-52.246,189.453,-188.477,-35.645,0.000
1587068796.366,-132.812,-609.375,-560.547,-39.551,0.000
1587068796.370,-45.898,-169.922,-229.004,-44.434,0.000
1587068796.374,56.152,590.332,124.512,-36.621,0.000
1587068796.378,-4.883,416.992,-95.703,-23.438,0.000
1587068796.382,-112.793,-545.898,-590.332,-25.879,0.000
1587068796.385,-76.660,-575.684,-470.703,-42.480,0.000
1587068796.389,26.855,480.469,81.543,-41.504,0.000
1587068796.393,9.277,642.578,78.125,-39.551,0.000
1587068796.397,-103.027,-484.375,-557.617,-29.785,0.000
1587068796.401,-108.398,-669.922,-584.473,-28.809,0.000
1587068796.405,14.160,411.133,-19.043,-37.598,0.000
1587068796.409,42.480,660.645,75.195,-27.344,0.000
1587068796.413,-74.219,47.852,-278.809,-11.230,0.000
1587068796.417,-118.652,-379.395,-485.352,-24.414,0.000
1587068796.421,-5.371,-33.691,-274.414,-28.320,0.000
1587068796.425,77.148,353.516,-49.805,-11.719,0.000
1587068796.428,-13.184,-98.633,-326.172,-13.184,0.000
1587068796.432,-125.488,-466.797,-519.531,-33.691,0.000
1587068796.436,-64.941,12.207,-262.695,-47.363,0.000
1587068796.440,44.434,371.582,-98.633,-41.992,0.000
1587068796.444,-14.160,228.516,-167.480,-34.180,0.000
1587068796.448,-131.348,-27.344,-301.758,-41.504,0.000
1587068796.452,-95.215,-53.223,-342.773,-50.781,0.000
1587068796.456,21.484,-100.586,-334.961,-25.879,0.000
1587068796.460,23.926,-200.195,-304.688,11.719,0.000
1587068796.464,-90.820,-13.672,-263.672,-4.395,0.000
1587068796.467,-112.793,-125.488,-400.391,-37.109,0.000
1587068796.471,5.859,82.031,-284.668,-38.086,0.000
1587068796.475,53.223,245.117,-251.953,-20.996,0.000
1587068796.479,-50.293,-157.715,-428.223,-14.160,0.000
1587068796.483,-126.953,-573.242,-568.359,-36.621,0.000
1587068796.487,-16.113,-634.277,-530.762,-20.508,0.000
1587068796.491,63.477,-40.039,-187.988,-9.766,0.000
1587068796.495,-47.363,521.973,-32.227,-40.527,0.000
1587068796.499,-125.000,-111.328,-448.242,-29.297,0.000
1587068796.503,-50.293,-377.930,-459.473,-32.227,0.000
1587068796.507,44.434,338.867,-19.531,-54.199,0.000
1587068796.510,-3.906,587.402,24.414,-41.016,0.000
1587068796.514,-119.141,-217.773,-452.637,-34.180,0.000
1587068796.518,-90.332,-540.039,-574.707,-37.598,0.000
1587068796.522,35.645,52.734,-271.484,-31.250,0.000
1587068796.526,33.203,352.051,-167.969,-23.926,0.000
1587068796.530,-88.379,-242.188,-532.715,-15.625,0.000
1587068796.534,-104.492,-882.324,-752.441,-24.414,0.000
1587068796.538,-0.488,-53.223,-177.734,-40.039,0.000
1587068796.542,44.434,861.328,154.297,-26.855,0.000
1587068796.546,-64.453,280.762,-192.871,-20.020,0.000
1587068796.550,-134.277,-602.051,-591.309,-33.203,0.000
1587068796.553,-27.832,-183.105,-371.582,-29.785,0.000
1587068796.557,63.477,616.699,40.527,-9.766,0.000
1587068796.561,-13.672,319.336,-135.742,-11.719,0.000
1587068796.565,-125.000,-310.547,-500.000,-43.457,0.000
1587068796.569,-56.152,-393.555,-506.836,-43.457,0.000
1587068796.573,53.223,237.305,-144.531,-38.086,0.000
1587068796.577,2.441,-22.461,-287.109,-16.602,0.000
1587068796.581,-117.188,-693.359,-607.422,-13.184,0.000
1587068796.585,-106.445,-136.719,-377.441,-41.504,0.000
1587068796.589,24.414,411.621,-103.516,-45.898,0.000
1587068796.592,39.551,125.000,-178.223,-24.414,0.000
1587068796.596,-80.078,-284.668,-408.203,-23.438,0.000
1587068796.600,-108.887,-113.281,-374.512,-40.527,0.000
1587068796.604,-0.488,116.699,-302.246,-38.086,0.000
1587068796.608,51.270,376.953,-119.141,-31.738,0.000
1587068796.612,-57.129,189.941,-217.773,-36.621,0.000
1587068796.616,-123.535,-414.551,-517.578,-37.598,0.000
1587068796.620,-23.438,-422.363,-466.309,-33.691,0.000
1587068796.624,56.152,264.648,-123.535,-35.645,0.000
1587068796.628,-6.348,463.867,-37.109,-20.996,0.000
1587068796.632,-110.352,-118.652,-395.508,-28.320,0.000
1587068796.635,-75.195,-463.867,-499.023,-51.758,0.000
1587068796.639,28.320,-27.344,-219.727,-52.734,0.000
1587068796.643,7.812,300.293,-81.543,-43.945,0.000
1587068796.647,-108.887,-105.469,-393.555,-43.457,0.000
1587068796.651,-102.051,-734.863,-651.367,-41.504,0.000
1587068796.655,24.902,-477.051,-368.164,-20.508,0.000
1587068796.659,46.875,638.672,123.047,-25.391,0.000
1587068796.663,-66.895,208.008,-254.883,-30.762,0.000
1587068796.667,-116.699,-850.098,-746.094,-15.625,0.000
1587068796.671,-16.602,-424.316,-396.484,-33.691,0.000
1587068796.675,51.270,773.926,211.914,-46.875,0.000
1587068796.678,-22.949,408.691,-157.715,-28.320,0.000
1587068796.682,-123.047,-444.336,-556.152,-51.758,0.000
1587068796.686,-52.246,-252.441,-401.367,-51.270,0.000
1587068796.690,63.965,443.848,-44.434,-37.598,0.000
1587068796.694,-16.602,319.824,-119.141,-33.691,0.000
1587068796.698,-145.996,-566.895,-587.402,-43.945,0.000
1587068796.702,-103.516,-402.344,-419.922,-55.664,0.000
1587068796.706,17.578,398.438,-29.297,-49.805,0.000
1587068796.710,4.883,222.168,-225.098,-30.273,0.000
1587068796.714,-108.398,-530.273,-612.305,-28.320,0.000
1587068796.717,-120.605,-548.340,-528.809,-53.711,0.000
1587068796.721,-6.836,303.223,-62.012,-57.129,0.000
1587068796.725,31.250,399.414,-125.000,-37.598,0.000
1587068796.729,-79.590,-652.344,-653.809,-28.320,0.000
1587068796.733,-149.414,-731.445,-562.988,-70.312,0.000
1587068796.737,-37.109,-37.598,-326.172,-69.824,0.000
1587068796.741,56.641,168.945,-262.207,-23.926,0.000
1587068796.745,-45.410,98.145,-339.844,-36.621,0.000
1587068796.749,-158.203,23.926,-372.559,-70.312,0.000
1587068796.753,-88.867,85.938,-324.219,-69.336,0.000
1587068796.757,38.086,35.645,-321.289,-47.852,0.000
1587068796.760,-19.043,57.617,-268.066,-36.621,0.000
1587068796.764,-145.020,90.332,-333.984,-53.223,0.000
1587068796.768,-99.121,-228.027,-472.656,-62.012,0.000
1587068796.772,48.340,-27.344,-296.387,-35.156,0.000
1587068796.776,38.574,497.070,23.438,-17.090,0.000
1587068796.780,-106.445,351.562,-124.023,-40.527,0.000
1587068796.784,-124.023,-267.090,-507.812,-56.641,0.000
1587068796.788,-4.883,-94.727,-302.734,-47.852,0.000
1587068796.792,33.203,552.734,87.402,-53.223,0.000
1587068796.796,-82.520,387.207,-103.027,-64.941,0.000
1587068796.800,-130.371,-369.141,-535.156,-38.086,0.000
1587068796.803,-24.414,-543.945,-530.762,-28.320,0.000
1587068796.807,46.875,247.070,-81.543,-45.898,0.000
1587068796.811,-38.086,548.340,13.672,-42.969,0.000
1587068796.815,-135.254,-375.977,-534.180,-50.293,0.000
1587068796.819,-71.777,-602.051,-596.680,-50.293,0.000
1587068796.823,41.504,391.602,-31.250,-27.344,0.000
1587068796.827,12.207,510.742,-46.875,-8.301,0.000
1587068796.831,-110.840,-532.227,-627.441,-19.043,0.000
1587068796.835,-100.098,-712.402,-630.859,-31.738,0.000
1587068796.839,14.160,428.223,25.879,-44.922,0.000
1587068796.842,23.926,726.074,93.750,-20.020,0.000
1587068796.846,-90.820,-184.570,-441.406,-1.953,0.000
1587068796.850,-135.254,-751.465,-619.141,-33.691,0.000
1587068796.854,-22.461,6.348,-157.227,-59.570,0.000
1587068796.858,45.410,736.328,116.699,-34.180,0.000
1587068796.862,-36.621,-222.656,-450.195,7.812,0.000
1587068796.866,-125.977,-812.988,-661.133,-19.531,0.000
1587068796.870,-57.617,108.887,-217.285,-56.152,0.000
1587068796.874,51.270,605.469,-7.324,-37.109,0.000
1587068796.878,-19.531,200.195,-193.848,-17.090,0.000
1587068796.882,-123.535,-233.398,-437.500,-8.789,0.000
1587068796.885,-57.129,-154.785,-393.066,-5.859,0.000
1587068796.889,52.246,170.898,-209.473,-37.109,0.000
1587068796.893,20.508,371.094,-127.930,-37.109,0.000
1587068796.897,-93.262,-337.891,-493.652,-11.719,0.000
1587068796.901,-88.867,-590.332,-532.227,-23.926,0.000
1587068796.905,17.578,39.551,-274.902,-41.504,0.000
1587068796.909,35.156,27.344,-292.969,-24.902,0.000
1587068796.913,-86.914,22.461,-267.578,-27.832,0.000
1587068796.917,-125.488,-50.293,-380.859,-52.734,0.000
1587068796.921,-15.625,-5.371,-315.430,-54.688,0.000
1587068796.925,47.852,287.109,-82.031,-41.016,0.000
1587068796.928,-51.270,286.133,-105.469,-40.039,0.000
1587068796.932,-126.953,-190.430,-466.309,-43.457,0.000
1587068796.936,-34.668,-234.375,-374.512,-31.250,0.000
1587068796.940,60.059,287.598,-53.223,-30.762,0.000
1587068796.944,-26.855,82.031,-285.645,-37.598,0.000
1587068796.948,-145.020,-571.777,-589.844,-51.270,0.000
1587068796.952,-85.449,-630.371,-532.227,-46.387,0.000
1587068796.956,34.668,144.531,-90.332,-42.480,0.000
1587068796.960,12.695,572.754,63.965,-45.410,0.000
1587068796.964,-120.117,116.211,-291.016,-45.898,0.000
1587068796.967,-128.906,-778.809,-676.758,-35.645,0.000
1587068796.971,-6.836,-378.418,-329.590,-57.129,0.000
1587068796.975,12.695,687.500,145.508,-67.383,0.000
1587068796.979,-98.145,78.125,-313.965,-52.734,0.000
1587068796.983,-156.250,-549.316,-600.586,-62.988,0.000
1587068796.987,-75.195,4.395,-257.812,-92.773,0.000
1587068796.991,-14.160,483.887,-112.305,-103.027,0.000
1587068796.995,-104.492,-38.086,-461.426,-93.262,0.000
1587068796.999,-203.125,-575.684,-648.926,-116.211,0.000
1587068797.003,-134.766,-284.668,-428.223,-114.746,0.000
1587068797.007,-36.133,445.801,-32.715,-111.328,0.000
1587068797.010,-109.375,337.891,-157.715,-133.301,0.000
1587068797.014,-223.145,-649.414,-662.598,-143.066,0.000
1587068797.018,-190.918,-481.445,-496.094,-158.691,0.000
1587068797.022,-112.305,464.355,-36.133,-171.875,0.000
1587068797.026,-125.488,382.812,-91.309,-165.039,0.000
1587068797.030,-232.422,-281.738,-501.953,-164.551,0.000
1587068797.034,-259.766,-92.285,-399.414,-193.848,0.000
1587068797.038,-144.531,125.488,-305.176,-195.312,0.000
1587068797.042,-93.750,207.520,-228.027,-171.875,0.000
1587068797.046,-214.844,79.590,-295.410,-173.340,0.000
1587068797.050,-293.457,-172.363,-449.219,-193.359,0.000
1587068797.053,-189.453,104.004,-269.043,-197.754,0.000
1587068797.057,-93.262,3.418,-293.457,-178.711,0.000
1587068797.061,-182.129,-314.941,-434.570,-167.480,0.000
1587068797.065,-303.711,-141.602,-379.395,-201.172,0.000
1587068797.069,-223.633,-30.273,-368.164,-195.312,0.000
1587068797.073,-71.777,274.902,-113.770,-151.367,0.000
1587068797.077,-112.305,391.602,-67.871,-161.133,0.000
1587068797.081,-260.254,-20.020,-420.410,-195.312,0.000
1587068797.085,-240.723,-445.801,-563.965,-201.660,0.000
1587068797.089,-98.633,-82.520,-246.582,-181.152,0.000
1587068797.092,-76.660,557.129,77.637,-150.879,0.000
1587068797.096,-185.547,218.262,-257.324,-144.531,0.000
1587068797.100,-187.988,-475.586,-596.680,-132.324,0.000
1587068797.104,-43.945,-341.797,-398.438,-94.238,0.000
1587068797.108,20.996,523.926,27.832,-64.941,0.000
1587068797.112,-87.891,158.203,-293.945,-62.988,0.000
1587068797.116,-155.273,-713.379,-621.094,-78.125,0.000
1587068797.120,-39.551,-378.418,-366.699,-66.895,0.000
1587068797.124,61.035,606.445,59.570,-56.641,0.000
1587068797.128,2.441,669.434,64.453,-31.738,0.000
1587068797.132,-76.660,-420.410,-474.121,3.418,0.000
1587068797.135,-12.207,-609.375,-534.668,13.672,0.000
1587068797.139,110.840,531.250,14.648,13.184,0.000
1587068797.143,85.449,770.020,91.797,36.621,0.000
1587068797.147,-22.949,-398.926,-561.523,53.711,0.000
1587068797.151,-6.836,-853.027,-728.516,40.039,0.000
1587068797.155,99.609,232.910,-132.812,37.109,0.000
1587068797.159,128.418,649.414,7.324,56.641,0.000
1587068797.163,9.766,-27.832,-342.773,67.383,0.000
1587068797.167,-41.992,-284.180,-463.379,61.523,0.000
1587068797.171,83.496,329.590,-99.609,62.500,0.000
1587068797.175,148.438,558.105,24.414,77.637,0.000
1587068797.178,43.945,-239.746,-415.039,80.078,0.000
1587068797.182,-43.457,-655.273,-570.312,60.059,0.000
1587068797.186,40.039,-22.949,-267.090,50.293,0.000
1587068797.190,138.184,423.828,-82.031,63.965,0.000
1587068797.194,72.754,96.680,-351.562,79.102,0.000
1587068797.198,-36.133,-105.957,-412.598,72.266,0.000
1587068797.202,17.578,-20.996,-338.867,56.641,0.000
1587068797.206,142.090,28.320,-327.637,47.852,0.000
1587068797.210,107.422,142.578,-236.816,62.988,0.000
1587068797.214,-15.137,80.566,-283.691,71.777,0.000
1587068797.217,-14.160,-196.289,-431.152,43.457,0.000
1587068797.221,100.098,151.855,-234.863,35.645,0.000
1587068797.225,118.652,292.480,-172.852,53.223,0.000
1587068797.229,-10.742,-6.836,-317.383,38.086,0.000
1587068797.233,-63.477,-312.012,-489.746,32.715,0.000
1587068797.237,41.504,-274.902,-423.340,34.180,0.000
1587068797.241,125.488,390.137,-4.395,28.809,0.000
1587068797.245,33.203,449.707,-87.402,42.969,0.000
1587068797.249,-68.848,-173.828,-483.398,33.203,0.000
1587068797.253,10.254,-683.594,-532.715,26.855,0.000
1587068797.257,107.910,32.715,-68.848,26.855,0.000
1587068797.260,60.547,708.008,106.445,43.945,0.000
1587068797.264,-59.570,-157.715,-404.297,41.504,0.000
1587068797.268,-27.832,-535.156,-552.246,38.574,0.000
1587068797.272,87.402,97.168,-217.773,13.672,0.000
1587068797.276,62.988,389.160,-107.422,0.977,0.000
1587068797.280,-49.316,-275.879,-527.344,2.930,0.000
1587068797.284,-64.941,-842.285,-741.211,3.906,0.000
1587068797.288,25.879,79.590,-163.086,-11.719,0.000
1587068797.292,69.824,697.266,20.020,-13.672,0.000
1587068797.296,-32.715,-89.355,-406.250,-7.812,0.000
1587068797.300,-106.934,-666.992,-585.449,-18.066,0.000
1587068797.303,-3.906,-23.438,-204.102,-23.438,0.000
1587068797.307,81.055,739.746,156.250,-7.812,0.000
1587068797.311,19.531,388.184,-71.289,43.945,0.000
1587068797.315,-77.637,-242.676,-429.199,23.926,0.000
1587068797.319,-37.598,-261.719,-425.293,-31.738,0.000
1587068797.323,62.012,202.148,-214.355,-34.668,0.000
1587068797.327,24.902,-95.703,-384.277,-7.812,0.000
1587068797.331,-99.121,-638.184,-610.352,-7.324,0.000
1587068797.335,-81.543,-165.039,-391.113,-28.809,0.000
1587068797.339,43.457,371.582,-89.844,-23.438,0.000
1587068797.342,56.641,336.426,-109.375,-11.230,0.000
1587068797.346,-74.707,55.664,-324.707,-27.832,0.000
1587068797.350,-103.516,-168.457,-423.340,-34.180,0.000
1587068797.354,41.504,-131.348,-366.211,-14.160,0.000
1587068797.358,89.844,337.402,-69.336,-5.859,0.000
1587068797.362,-31.250,251.465,-171.387,-6.348,0.000
1587068797.366,-122.070,-420.898,-554.688,-24.902,0.000
1587068797.370,-32.715,-475.098,-502.930,-34.180,0.000
1587068797.374,66.406,183.594,-156.250,-24.414,0.000
1587068797.378,-10.742,457.031,-51.758,-22.461,0.000
1587068797.382,-132.324,-21.484,-385.742,-29.785,0.000
1587068797.385,-67.871,-488.281,-557.129,-26.855,0.000
1587068797.389,68.359,-178.711,-282.715,-15.625,0.000
1587068797.393,27.344,248.047,-128.418,-5.859,0.000
1587068797.397,-96.680,-106.934,-454.590,-18.066,0.000
1587068797.401,-96.191,-470.703,-505.859,-36.621,0.000
1587068797.405,25.879,69.824,-150.391,-27.344,0.000
1587068797.409,47.363,674.316,96.191,-21.484,0.000
1587068797.413,-78.613,4.395,-335.449,-21.973,0.000
1587068797.417,-132.812,-744.629,-642.090,-34.668,0.000
1587068797.421,-30.762,-259.277,-256.836,-44.434,0.000
1587068797.425,38.574,586.914,101.562,-36.133,0.000
1587068797.428,-49.805,268.555,-182.617,-29.297,0.000
1587068797.432,-119.141,-749.023,-730.469,-19.531,0.000
1587068797.436,-38.574,-634.766,-604.004,-20.508,0.000
1587068797.440,60.059,587.402,71.777,-32.227,0.000
1587068797.444,9.277,497.070,-110.840,-12.207,0.000
1587068797.448,-119.629,-357.422,-567.383,-20.508,0.000
1587068797.452,-89.844,-190.430,-365.723,-48.828,0.000
1587068797.456,38.086,533.691,27.344,-47.363,0.000
1587068797.460,31.738,330.566,-168.457,-22.949,0.000
1587068797.464,-100.098,-655.762,-622.559,-28.809,0.000
1587068797.467,-124.023,-569.824,-480.957,-62.012,0.000
1587068797.471,8.301,179.199,-267.090,-49.316,0.000
